Time [s],Position [mm],Power [W]
0.002,0,0.390929
2.049,0.04,0.39085
4.606,0.08,0.390882
7.258,0.12,0.391056
9.815,0.16,0.390834
12.369,0.2,0.39077
14.927,0.24000000000000002,0.391168
17.482,0.28,0.390786
20.040,0.32,0.390802
22.705,0.36,0.390961
25.263,0.39999999999999997,0.390961
27.820,0.43999999999999995,0.390738
30.388,0.4799999999999999,0.391136
32.947,0.5199999999999999,0.391041
35.504,0.5599999999999999,0.390913
38.079,0.6,0.390818
40.634,0.64,0.391056
43.188,0.68,0.391247
45.744,0.7200000000000001,0.390913
48.301,0.7600000000000001,0.390929
50.855,0.8000000000000002,0.390818
53.413,0.8400000000000002,0.391088
55.969,0.8800000000000002,0.390993
58.558,0.9200000000000003,0.390897
61.114,0.9600000000000003,0.391168
63.672,1.0000000000000002,0.391025
66.226,1.0400000000000003,0.390786
68.782,1.0800000000000003,0.391072
71.355,1.1200000000000003,0.390993
73.909,1.1600000000000004,0.39085
76.467,1.2000000000000004,0.391041
79.022,1.2400000000000004,0.390961
81.594,1.2800000000000005,0.39112
84.151,1.3200000000000005,0.391088
86.707,1.3600000000000005,0.390977
89.279,1.4000000000000006,0.39112
91.933,1.4400000000000006,0.390977
94.487,1.4800000000000006,0.390929
97.043,1.5200000000000007,0.390834
99.599,1.5600000000000007,0.391088
102.155,1.6000000000000008,0.390897
104.712,1.6400000000000008,0.391168
107.268,1.6800000000000008,0.391072
109.825,1.7200000000000009,0.390929
112.380,1.760000000000001,0.390961
114.936,1.800000000000001,0.390977
117.492,1.840000000000001,0.391088
120.047,1.880000000000001,0.390866
122.604,1.920000000000001,0.391009
125.288,1.960000000000001,0.390913
127.845,2.000000000000001,0.390993
130.400,2.040000000000001,0.39112
132.956,2.080000000000001,0.391025
135.515,2.120000000000001,0.391152
138.068,2.160000000000001,0.391041
140.625,2.200000000000001,0.391247
143.182,2.240000000000001,0.391025
145.738,2.280000000000001,0.391088
148.310,2.320000000000001,0.391231
150.865,2.360000000000001,0.391136
153.425,2.4000000000000012,0.391327
155.979,2.4400000000000013,0.391088
158.534,2.4800000000000013,0.391136
161.090,2.5200000000000014,0.391009
163.647,2.5600000000000014,0.390993
166.202,2.6000000000000014,0.391327
168.760,2.6400000000000015,0.391311
171.315,2.6800000000000015,0.391168
173.871,2.7200000000000015,0.391025
176.428,2.7600000000000016,0.391088
179.016,2.8000000000000016,0.391025
181.571,2.8400000000000016,0.391406
184.128,2.8800000000000017,0.3912
186.686,2.9200000000000017,0.3912
189.240,2.9600000000000017,0.391247
191.797,3.0000000000000018,0.39112
194.355,3.040000000000002,0.391231
196.915,3.080000000000002,0.391279
199.465,3.120000000000002,0.391295
202.501,3.160000000000002,0.391247
205.058,3.200000000000002,0.39112
207.614,3.240000000000002,0.391231
210.202,3.280000000000002,0.391231
212.757,3.320000000000002,0.391375
215.410,3.360000000000002,0.391327
217.966,3.400000000000002,0.391152
220.522,3.440000000000002,0.391216
223.078,3.480000000000002,0.391247
225.636,3.5200000000000022,0.391327
228.190,3.5600000000000023,0.391231
230.746,3.6000000000000023,0.391375
233.303,3.6400000000000023,0.391327
235.858,3.6800000000000024,0.391311
238.414,3.7200000000000024,0.391406
240.971,3.7600000000000025,0.391263
243.529,3.8000000000000025,0.391359
246.083,3.8400000000000025,0.391581
248.640,3.8800000000000026,0.391343
251.227,3.9200000000000026,0.391263
253.784,3.9600000000000026,0.391359
256.342,4.000000000000003,0.391247
258.898,4.040000000000003,0.39147
261.468,4.080000000000003,0.391422
264.026,4.120000000000003,0.391422
266.580,4.160000000000003,0.391279
269.136,4.200000000000003,0.391327
271.693,4.240000000000003,0.391438
274.249,4.280000000000003,0.39139
276.805,4.320000000000003,0.391629
279.377,4.360000000000003,0.391438
281.933,4.400000000000003,0.39147
284.490,4.440000000000003,0.391549
287.062,4.480000000000003,0.391438
289.618,4.520000000000003,0.391438
292.175,4.560000000000003,0.391406
294.730,4.600000000000003,0.391486
297.286,4.640000000000003,0.39147
299.843,4.680000000000003,0.391534
302.398,4.720000000000003,0.391422
304.957,4.760000000000003,0.391295
307.515,4.800000000000003,0.391295
310.067,4.840000000000003,0.391406
312.624,4.8800000000000034,0.391104
315.179,4.9200000000000035,0.391343
317.736,4.9600000000000035,0.391359
320.788,5.0000000000000036,0.391724
323.343,5.040000000000004,0.391518
325.901,5.080000000000004,0.391709
328.454,5.120000000000004,0.391534
331.013,5.160000000000004,0.391756
333.568,5.200000000000004,0.39147
336.124,5.240000000000004,0.391518
338.681,5.280000000000004,0.391359
341.238,5.320000000000004,0.39147
344.064,5.360000000000004,0.391836
346.624,5.400000000000004,0.391852
349.178,5.440000000000004,0.391883
351.734,5.480000000000004,0.391565
354.290,5.520000000000004,0.391629
357.117,5.560000000000004,0.391693
359.673,5.600000000000004,0.391597
362.246,5.640000000000004,0.391868
364.880,5.680000000000004,0.391883
367.438,5.720000000000004,0.392122
369.994,5.760000000000004,0.391852
372.552,5.800000000000004,0.391931
375.122,5.840000000000004,0.391724
377.678,5.880000000000004,0.391915
380.234,5.920000000000004,0.391915
382.790,5.960000000000004,0.391852
385.348,6.000000000000004,0.392058
387.903,6.0400000000000045,0.391852
390.460,6.0800000000000045,0.391947
393.017,6.1200000000000045,0.391868
395.573,6.160000000000005,0.391899
398.128,6.200000000000005,0.391963
400.733,6.240000000000005,0.391947
403.289,6.280000000000005,0.392122
405.844,6.320000000000005,0.392154
408.406,6.360000000000005,0.392138
410.973,6.400000000000005,0.392345
413.529,6.440000000000005,0.392408
416.086,6.480000000000005,0.392472
418.642,6.520000000000005,0.392679
421.197,6.560000000000005,0.392488
423.753,6.600000000000005,0.392265
426.309,6.640000000000005,0.392456
428.865,6.680000000000005,0.392488
431.519,6.720000000000005,0.392138
434.075,6.760000000000005,0.392376
436.629,6.800000000000005,0.392472
439.186,6.840000000000005,0.392456
441.742,6.880000000000005,0.39217
444.314,6.920000000000005,0.392392
446.871,6.960000000000005,0.392345
449.427,7.000000000000005,0.392361
451.981,7.040000000000005,0.392726
454.541,7.080000000000005,0.392345
457.097,7.120000000000005,0.392583
459.652,7.1600000000000055,0.392679
462.239,7.2000000000000055,0.392758
464.796,7.2400000000000055,0.392822
467.353,7.280000000000006,0.392869
469.907,7.320000000000006,0.392869
472.465,7.360000000000006,0.393203
475.020,7.400000000000006,0.393378
477.576,7.440000000000006,0.393315
480.133,7.480000000000006,0.393172
482.690,7.520000000000006,0.393299
485.245,7.560000000000006,0.393537
487.803,7.600000000000006,0.393808
490.357,7.640000000000006,0.39384
492.914,7.680000000000006,0.394015
495.470,7.720000000000006,0.394221
498.027,7.760000000000006,0.394444
500.582,7.800000000000006,0.394619
503.138,7.840000000000006,0.394762
505.694,7.880000000000006,0.394635
508.250,7.920000000000006,0.394746
510.807,7.960000000000006,0.394698
513.366,8.000000000000005,0.394762
515.920,8.040000000000004,0.394905
518.572,8.080000000000004,0.39473
521.129,8.120000000000003,0.394412
523.683,8.160000000000002,0.394587
526.243,8.200000000000001,0.394794
528.797,8.24,0.394969
531.384,8.28,0.394873
533.939,8.319999999999999,0.39481
536.497,8.359999999999998,0.394969
539.053,8.399999999999997,0.394651
541.657,8.439999999999996,0.39446
544.325,8.479999999999995,0.394651
546.880,8.519999999999994,0.394698
549.437,8.559999999999993,0.394682
551.995,8.599999999999993,0.394619
554.550,8.639999999999992,0.394285
557.121,8.67999999999999,0.394364
559.677,8.71999999999999,0.39411
562.233,8.75999999999999,0.394476
564.822,8.799999999999988,0.394492
567.380,8.839999999999987,0.394555
569.933,8.879999999999987,0.394555
572.489,8.919999999999986,0.394253
575.046,8.959999999999985,0.394269
577.606,8.999999999999984,0.393855
580.159,9.039999999999983,0.39376
582.714,9.079999999999982,0.393585
585.272,9.119999999999981,0.393521
587.828,9.15999999999998,0.393362
590.382,9.19999999999998,0.39314
593.290,9.239999999999979,0.393331
595.848,9.279999999999978,0.393172
598.404,9.319999999999977,0.393188
600.960,9.359999999999976,0.393108
603.515,9.399999999999975,0.392949
606.072,9.439999999999975,0.39306
608.629,9.479999999999974,0.392726
611.279,9.519999999999973,0.392535
613.835,9.559999999999972,0.392488
616.392,9.599999999999971,0.392281
618.998,9.63999999999997,0.392154
621.552,9.67999999999997,0.392217
624.108,9.719999999999969,0.392361
626.665,9.759999999999968,0.392074
629.221,9.799999999999967,0.392058
631.777,9.839999999999966,0.392106
634.333,9.879999999999965,0.392202
636.889,9.919999999999964,0.392154
639.445,9.959999999999964,0.392138
642.001,9.999999999999963,0.392249
644.557,10.039999999999962,0.392106
647.114,10.079999999999961,0.392042
649.669,10.11999999999996,0.391804
652.274,10.15999999999996,0.391963
654.830,10.199999999999958,0.392058
657.433,10.239999999999958,0.392122
659.990,10.279999999999957,0.392281
662.546,10.319999999999956,0.391915
665.102,10.359999999999955,0.392281
667.661,10.399999999999954,0.391931
670.215,10.439999999999953,0.39182
672.771,10.479999999999952,0.391772
675.329,10.519999999999952,0.391645
677.996,10.55999999999995,0.391868
680.552,10.59999999999995,0.391486
683.109,10.639999999999949,0.391963
685.663,10.679999999999948,0.391756
688.236,10.719999999999947,0.391645
690.791,10.759999999999946,0.391836
693.364,10.799999999999946,0.391597
695.922,10.839999999999945,0.391581
698.475,10.879999999999944,0.391915
701.035,10.919999999999943,0.391709
703.621,10.959999999999942,0.391709
706.353,10.999999999999941,0.39139
708.910,11.03999999999994,0.391629
711.464,11.07999999999994,0.391581
714.022,11.119999999999939,0.39174
716.578,11.159999999999938,0.391661
719.134,11.199999999999937,0.391486
721.690,11.239999999999936,0.391629
724.245,11.279999999999935,0.391518
726.801,11.319999999999935,0.391788
729.359,11.359999999999934,0.391963
731.915,11.399999999999933,0.391836
734.470,11.439999999999932,0.391693
737.031,11.479999999999931,0.391661
739.599,11.51999999999993,0.391422
742.156,11.55999999999993,0.391565
744.710,11.599999999999929,0.391502
747.268,11.639999999999928,0.391502
749.823,11.679999999999927,0.391581
752.379,11.719999999999926,0.391518
754.935,11.759999999999925,0.391438
757.493,11.799999999999924,0.391581
760.048,11.839999999999923,0.39139
762.604,11.879999999999923,0.391406
765.160,11.919999999999922,0.391279
767.715,11.959999999999921,0.391375
770.279,11.99999999999992,0.391502
772.828,12.03999999999992,0.391677
775.385,12.079999999999918,0.391231
777.941,12.119999999999918,0.391422
780.497,12.159999999999917,0.391375
783.052,12.199999999999916,0.391056
785.607,12.239999999999915,0.391136
788.213,12.279999999999914,0.391263
790.768,12.319999999999913,0.391406
793.324,12.359999999999912,0.391136
795.881,12.399999999999912,0.391534
798.437,12.43999999999991,0.391502
800.994,12.47999999999991,0.391327
803.550,12.519999999999909,0.391677
806.106,12.559999999999908,0.391216
808.661,12.599999999999907,0.391279
811.218,12.639999999999906,0.391311
813.775,12.679999999999906,0.391438
816.344,12.719999999999905,0.391549
818.934,12.759999999999904,0.391422
821.492,12.799999999999903,0.391406
824.046,12.839999999999902,0.391327
826.603,12.879999999999901,0.391486
829.160,12.9199999999999,0.391327
831.716,12.9599999999999,0.391295
834.271,12.999999999999899,0.391486
