Time [s],Position [mm],Power [W]
0.002,0,0.330376
2.057,0.04,0.330106
4.629,0.08,0.330487
7.218,0.12,0.330106
9.806,0.16,0.330392
12.393,0.2,0.330614
14.966,0.24000000000000002,0.330503
17.554,0.28,0.33036
20.125,0.32,0.330249
22.697,0.36,0.330344
25.286,0.39999999999999997,0.33063
27.842,0.43999999999999995,0.330424
30.422,0.4799999999999999,0.330567
32.985,0.5199999999999999,0.330392
35.543,0.5599999999999999,0.330439
38.113,0.6,0.330265
40.701,0.64,0.330312
43.257,0.68,0.330392
45.830,0.7200000000000001,0.33036
48.418,0.7600000000000001,0.330408
50.989,0.8000000000000002,0.330137
53.560,0.8400000000000002,0.330455
56.117,0.8800000000000002,0.330392
58.704,0.9200000000000003,0.330376
61.277,0.9600000000000003,0.330122
63.865,1.0000000000000002,0.330169
66.437,1.0400000000000003,0.330471
69.001,1.0800000000000003,0.330265
71.566,1.1200000000000003,0.330344
74.137,1.1600000000000004,0.330614
76.694,1.2000000000000004,0.330424
79.251,1.2400000000000004,0.330439
81.838,1.2800000000000005,0.330265
84.411,1.3200000000000005,0.330503
86.997,1.3600000000000005,0.330519
89.570,1.4000000000000006,0.330392
92.142,1.4400000000000006,0.330439
94.699,1.4800000000000006,0.330328
97.264,1.5200000000000007,0.330439
99.828,1.5600000000000007,0.330439
102.402,1.6000000000000008,0.330439
104.971,1.6400000000000008,0.330535
107.542,1.6800000000000008,0.330535
110.132,1.7200000000000009,0.330249
112.702,1.760000000000001,0.330106
115.276,1.800000000000001,0.330296
117.862,1.840000000000001,0.330408
120.450,1.880000000000001,0.330503
123.022,1.920000000000001,0.33063
125.610,1.960000000000001,0.33036
128.166,2.000000000000001,0.330296
130.724,2.040000000000001,0.330598
133.277,2.080000000000001,0.33036
135.865,2.120000000000001,0.330439
138.439,2.160000000000001,0.330424
140.994,2.200000000000001,0.330249
143.583,2.240000000000001,0.330503
146.155,2.280000000000001,0.330249
148.727,2.320000000000001,0.330233
151.297,2.360000000000001,0.330471
153.871,2.4000000000000012,0.330376
156.445,2.4400000000000013,0.330312
159.031,2.4800000000000013,0.330201
161.603,2.5200000000000014,0.330439
164.190,2.5600000000000014,0.330455
166.763,2.6000000000000014,0.330328
169.351,2.6400000000000015,0.330424
172.020,2.6800000000000015,0.329978
174.590,2.7200000000000015,0.330471
177.179,2.7600000000000016,0.330026
179.751,2.8000000000000016,0.330153
182.323,2.8400000000000016,0.330439
184.881,2.8800000000000017,0.330551
187.465,2.9200000000000017,0.330582
190.039,2.9600000000000017,0.330582
192.627,3.0000000000000018,0.330455
195.199,3.040000000000002,0.330424
197.787,3.080000000000002,0.330757
200.358,3.120000000000002,0.330424
202.947,3.160000000000002,0.330408
205.503,3.200000000000002,0.33028
208.059,3.240000000000002,0.330519
210.631,3.280000000000002,0.330455
213.241,3.320000000000002,0.330312
215.791,3.360000000000002,0.330439
218.363,3.400000000000002,0.330471
220.935,3.440000000000002,0.330662
223.496,3.480000000000002,0.330646
226.063,3.5200000000000022,0.330503
228.619,3.5600000000000023,0.330439
231.191,3.6000000000000023,0.330455
233.748,3.6400000000000023,0.330312
236.303,3.6800000000000024,0.33071
238.860,3.7200000000000024,0.330439
241.415,3.7600000000000025,0.330551
243.988,3.8000000000000025,0.330821
246.559,3.8400000000000025,0.330487
249.115,3.8800000000000026,0.330503
251.672,3.9200000000000026,0.330296
254.245,3.9600000000000026,0.330392
256.800,4.000000000000003,0.330487
259.388,4.040000000000003,0.330646
261.960,4.080000000000003,0.330598
264.531,4.120000000000003,0.330376
267.103,4.160000000000003,0.330694
269.692,4.200000000000003,0.330598
272.264,4.240000000000003,0.330519
274.820,4.280000000000003,0.330614
277.409,4.320000000000003,0.330885
279.980,4.360000000000003,0.330296
282.536,4.400000000000003,0.330694
285.109,4.440000000000003,0.330598
287.681,4.480000000000003,0.330726
290.253,4.520000000000003,0.330582
292.842,4.560000000000003,0.33071
295.429,4.600000000000003,0.330678
298.000,4.640000000000003,0.330535
300.571,4.680000000000003,0.330805
303.129,4.720000000000003,0.33063
305.701,4.760000000000003,0.330932
308.256,4.800000000000003,0.330789
310.831,4.840000000000003,0.33063
313.400,4.8800000000000034,0.330535
315.956,4.9200000000000035,0.33063
318.528,4.9600000000000035,0.330503
321.116,5.0000000000000036,0.330821
323.688,5.040000000000004,0.330869
326.282,5.080000000000004,0.330567
328.848,5.120000000000004,0.330694
331.420,5.160000000000004,0.330742
333.997,5.200000000000004,0.330805
336.548,5.240000000000004,0.330742
339.137,5.280000000000004,0.330503
341.711,5.320000000000004,0.330773
344.284,5.360000000000004,0.330694
346.853,5.400000000000004,0.330694
349.440,5.440000000000004,0.330757
352.076,5.480000000000004,0.330757
354.655,5.520000000000004,0.330869
357.220,5.560000000000004,0.331091
359.793,5.600000000000004,0.330742
362.348,5.640000000000004,0.330821
364.921,5.680000000000004,0.330742
367.476,5.720000000000004,0.331123
370.049,5.760000000000004,0.331028
372.605,5.800000000000004,0.331266
375.177,5.840000000000004,0.33125
377.765,5.880000000000004,0.331218
380.354,5.920000000000004,0.331441
382.925,5.960000000000004,0.3316
385.513,6.000000000000004,0.33125
388.069,6.0400000000000045,0.331632
390.656,6.0800000000000045,0.332013
393.229,6.1200000000000045,0.33195
395.816,6.160000000000005,0.331965
398.389,6.200000000000005,0.331934
400.960,6.240000000000005,0.331632
403.533,6.280000000000005,0.331759
406.104,6.320000000000005,0.331425
408.676,6.360000000000005,0.3316
411.233,6.400000000000005,0.331409
413.823,6.440000000000005,0.331266
416.395,6.480000000000005,0.33125
418.965,6.520000000000005,0.331489
421.522,6.560000000000005,0.331282
424.093,6.600000000000005,0.331139
426.665,6.640000000000005,0.331632
429.238,6.680000000000005,0.331695
431.809,6.720000000000005,0.331425
434.382,6.760000000000005,0.331552
436.968,6.800000000000005,0.331552
439.531,6.840000000000005,0.331711
442.098,6.880000000000005,0.331727
444.653,6.920000000000005,0.331934
447.241,6.960000000000005,0.331822
449.798,7.000000000000005,0.331838
452.355,7.040000000000005,0.331838
454.942,7.080000000000005,0.332188
457.514,7.120000000000005,0.33222
460.072,7.1600000000000055,0.332109
462.643,7.2000000000000055,0.332299
465.213,7.2400000000000055,0.332299
467.770,7.280000000000006,0.332411
470.326,7.320000000000006,0.332617
472.898,7.360000000000006,0.332808
475.471,7.400000000000006,0.332824
478.106,7.440000000000006,0.33303
480.678,7.480000000000006,0.333364
483.267,7.520000000000006,0.333317
485.822,7.560000000000006,0.333571
488.394,7.600000000000006,0.333762
490.967,7.640000000000006,0.333619
493.554,7.680000000000006,0.33365
496.126,7.720000000000006,0.33373
498.715,7.760000000000006,0.333444
501.287,7.800000000000006,0.333507
503.850,7.840000000000006,0.333603
506.416,7.880000000000006,0.333571
508.970,7.920000000000006,0.33346
511.527,7.960000000000006,0.333428
514.099,8.000000000000005,0.333221
516.659,8.040000000000004,0.333825
519.215,8.080000000000004,0.333619
521.767,8.120000000000003,0.333698
524.324,8.160000000000002,0.333635
526.896,8.200000000000001,0.333523
529.453,8.24,0.33365
532.008,8.28,0.333714
534.563,8.319999999999999,0.333666
537.137,8.359999999999998,0.33365
539.725,8.399999999999997,0.33365
542.297,8.439999999999996,0.33365
544.885,8.479999999999995,0.333793
547.472,8.519999999999994,0.333603
550.045,8.559999999999993,0.333539
552.634,8.599999999999993,0.333507
555.206,8.639999999999992,0.333714
557.761,8.67999999999999,0.333698
560.317,8.71999999999999,0.333635
562.892,8.75999999999999,0.333507
565.462,8.799999999999988,0.333523
568.049,8.839999999999987,0.333523
570.610,8.879999999999987,0.333523
573.178,8.919999999999986,0.333476
575.763,8.959999999999985,0.333539
578.338,8.999999999999984,0.333237
580.911,9.039999999999983,0.333078
583.498,9.079999999999982,0.333046
586.070,9.119999999999981,0.332872
588.625,9.15999999999998,0.332601
591.199,9.19999999999998,0.332506
593.790,9.239999999999979,0.332601
596.358,9.279999999999978,0.33249
598.947,9.319999999999977,0.332395
601.518,9.359999999999976,0.332442
604.076,9.399999999999975,0.33222
606.663,9.439999999999975,0.332188
609.219,9.479999999999974,0.33222
611.805,9.519999999999973,0.332156
614.397,9.559999999999972,0.331934
616.982,9.599999999999971,0.332077
619.554,9.63999999999997,0.331886
622.142,9.67999999999997,0.331791
624.699,9.719999999999969,0.331791
627.270,9.759999999999968,0.331759
629.842,9.799999999999967,0.331663
632.431,9.839999999999966,0.331616
634.987,9.879999999999965,0.331441
637.574,9.919999999999964,0.3316
640.134,9.959999999999964,0.331346
642.719,9.999999999999963,0.331393
645.276,10.039999999999962,0.331393
647.847,10.079999999999961,0.331441
650.418,10.11999999999996,0.331187
652.976,10.15999999999996,0.331298
655.563,10.199999999999958,0.331282
658.151,10.239999999999958,0.331123
660.748,10.279999999999957,0.331234
663.343,10.319999999999956,0.331043
665.897,10.359999999999955,0.331075
668.455,10.399999999999954,0.331298
671.042,10.439999999999953,0.330996
673.615,10.479999999999952,0.330662
676.185,10.519999999999952,0.331218
678.743,10.55999999999995,0.330742
681.330,10.59999999999995,0.330885
683.887,10.639999999999949,0.330789
686.459,10.679999999999948,0.330742
689.031,10.719999999999947,0.330757
691.620,10.759999999999946,0.330789
694.190,10.799999999999946,0.33098
696.778,10.839999999999945,0.330932
699.335,10.879999999999944,0.331218
701.907,10.919999999999943,0.330726
704.463,10.959999999999942,0.330853
707.050,10.999999999999941,0.330789
709.623,11.03999999999994,0.33071
712.195,11.07999999999994,0.330694
714.795,11.119999999999939,0.330853
717.370,11.159999999999938,0.330821
719.928,11.199999999999937,0.330598
722.498,11.239999999999936,0.330662
725.071,11.279999999999935,0.330821
727.706,11.319999999999935,0.330757
730.263,11.359999999999934,0.330694
732.834,11.399999999999933,0.330662
735.422,11.439999999999932,0.330742
737.978,11.479999999999931,0.330757
740.535,11.51999999999993,0.330742
743.091,11.55999999999993,0.330726
745.679,11.599999999999929,0.330535
748.251,11.639999999999928,0.330646
750.839,11.679999999999927,0.33071
753.397,11.719999999999926,0.330789
755.950,11.759999999999925,0.330789
758.523,11.799999999999924,0.330455
761.111,11.839999999999923,0.330328
763.683,11.879999999999923,0.330614
766.255,11.919999999999922,0.330614
768.827,11.959999999999921,0.330678
771.382,11.99999999999992,0.330424
773.971,12.03999999999992,0.330694
776.532,12.079999999999918,0.330455
779.084,12.119999999999918,0.330503
781.641,12.159999999999917,0.330757
784.214,12.199999999999916,0.330582
786.798,12.239999999999915,0.330598
789.356,12.279999999999914,0.330614
791.911,12.319999999999913,0.330551
794.467,12.359999999999912,0.330646
797.054,12.399999999999912,0.330567
799.611,12.43999999999991,0.330424
802.169,12.47999999999991,0.330646
804.722,12.519999999999909,0.33063
807.295,12.559999999999908,0.330757
809.882,12.599999999999907,0.330519
812.455,12.639999999999906,0.330646
815.027,12.679999999999906,0.33036
817.601,12.719999999999905,0.330567
820.155,12.759999999999904,0.330598
822.711,12.799999999999903,0.330424
825.268,12.839999999999902,0.330487
827.839,12.879999999999901,0.330344
830.428,12.9199999999999,0.330567
833.001,12.9599999999999,0.330487
835.572,12.999999999999899,0.330567
