Time [s],Position [mm],Power [W]
0.003,0,0.412939
2.089,0.5,0.412907
4.835,1.0,0.412605
7.489,1.5,0.413082
10.075,2.0,0.412796
12.632,2.5,0.412859
15.189,3.0,0.413082
17.745,3.5,0.412971
20.301,4.0,0.413368
22.890,4.5,0.413209
25.674,5.0,0.4134
28.481,5.5,0.413209
31.038,6.0,0.41375
33.673,6.5,0.414004
36.231,6.51,0.413622
38.787,6.52,0.414274
41.344,6.529999999999999,0.414465
43.900,6.539999999999999,0.414242
46.568,6.549999999999999,0.413781
49.311,6.559999999999999,0.413972
51.856,6.5699999999999985,0.413972
54.527,6.579999999999998,0.413734
57.233,6.589999999999998,0.413845
59.863,6.599999999999998,0.41394
62.465,6.609999999999998,0.413861
65.293,6.619999999999997,0.413893
67.929,6.629999999999997,0.413924
70.566,6.639999999999997,0.414083
73.122,6.649999999999997,0.414052
75.694,6.659999999999997,0.414242
78.330,6.669999999999996,0.414004
80.886,6.679999999999996,0.414163
83.569,6.689999999999996,0.414052
86.151,6.699999999999996,0.414226
88.704,6.7099999999999955,0.414354
91.256,6.719999999999995,0.414115
93.813,6.729999999999995,0.414258
96.426,6.739999999999995,0.414433
99.214,6.749999999999995,0.414163
101.951,6.7599999999999945,0.414052
104.533,6.769999999999994,0.414163
107.133,6.779999999999994,0.414195
109.694,6.789999999999994,0.414385
112.377,6.799999999999994,0.414354
115.093,6.809999999999993,0.414179
117.728,6.819999999999993,0.414449
120.406,6.829999999999993,0.414274
123.058,6.839999999999993,0.414687
125.843,6.8499999999999925,0.414719
128.398,6.859999999999992,0.414656
130.950,6.869999999999992,0.414624
133.559,6.879999999999992,0.414544
136.394,6.889999999999992,0.414465
138.948,6.8999999999999915,0.414687
141.505,6.909999999999991,0.414846
144.155,6.919999999999991,0.414974
146.821,6.929999999999991,0.414926
149.398,6.939999999999991,0.414942
152.133,6.94999999999999,0.415117
154.759,6.95999999999999,0.414862
157.370,6.96999999999999,0.415037
160.103,6.97999999999999,0.415037
163.032,6.9899999999999896,0.414862
165.605,6.999999999999989,0.415069
168.300,7.009999999999989,0.415291
171.011,7.019999999999989,0.415419
173.728,7.029999999999989,0.415101
176.271,7.0399999999999885,0.41545
178.838,7.049999999999988,0.41553
181.455,7.059999999999988,0.415546
184.004,7.069999999999988,0.415641
186.577,7.079999999999988,0.41588
189.167,7.089999999999987,0.415832
191.795,7.099999999999987,0.415975
194.469,7.109999999999987,0.415641
197.181,7.119999999999987,0.415737
199.864,7.129999999999987,0.415546
202.557,7.139999999999986,0.415609
205.292,7.149999999999986,0.415737
207.882,7.159999999999986,0.415768
210.439,7.169999999999986,0.415784
212.987,7.1799999999999855,0.41588
215.543,7.189999999999985,0.415927
218.105,7.199999999999985,0.415864
220.733,7.209999999999985,0.415943
223.410,7.219999999999985,0.415673
226.155,7.229999999999984,0.415673
228.869,7.239999999999984,0.415784
231.567,7.249999999999984,0.415959
234.236,7.259999999999984,0.415959
236.888,7.269999999999984,0.415927
239.463,7.279999999999983,0.415848
242.033,7.289999999999983,0.415466
244.647,7.299999999999983,0.415768
247.280,7.309999999999983,0.415895
249.845,7.3199999999999825,0.415864
252.402,7.329999999999982,0.41588
255.059,7.339999999999982,0.415832
257.728,7.349999999999982,0.416007
260.278,7.359999999999982,0.41607
263.000,7.3699999999999815,0.4158
265.647,7.379999999999981,0.415752
268.203,7.389999999999981,0.415657
270.809,7.399999999999981,0.415737
273.945,7.409999999999981,0.415737
276.592,7.41999999999998,0.415864
279.244,7.42999999999998,0.415864
281.912,7.43999999999998,0.415959
284.470,7.44999999999998,0.415864
287.059,7.4599999999999795,0.415705
289.663,7.469999999999979,0.415895
292.310,7.479999999999979,0.415927
295.618,7.489999999999979,0.416039
298.257,7.499999999999979,0.415864
300.814,7.5099999999999785,0.416039
303.415,7.519999999999978,0.415959
305.959,7.529999999999978,0.416229
308.631,7.539999999999978,0.416198
311.232,7.549999999999978,0.416356
313.788,7.559999999999977,0.416229
316.345,7.569999999999977,0.41615
319.223,7.579999999999977,0.415784
321.793,7.589999999999977,0.416039
324.590,7.5999999999999766,0.415943
327.145,7.609999999999976,0.415911
329.734,7.619999999999976,0.416325
332.290,7.629999999999976,0.416341
334.846,7.639999999999976,0.416484
338.281,7.6499999999999755,0.416579
340.933,7.659999999999975,0.416229
343.682,7.669999999999975,0.416547
346.238,7.679999999999975,0.416436
348.924,7.689999999999975,0.416658
351.479,7.699999999999974,0.416658
354.204,7.709999999999974,0.416611
356.863,7.719999999999974,0.417024
359.515,7.729999999999974,0.416817
362.263,7.739999999999974,0.416134
365.028,7.749999999999973,0.416452
367.798,7.759999999999973,0.416563
370.397,7.769999999999973,0.416643
373.032,7.779999999999973,0.416722
375.716,7.7899999999999725,0.416706
378.608,7.799999999999972,0.41704
381.260,7.809999999999972,0.416976
383.833,7.819999999999972,0.417008
386.405,7.829999999999972,0.417231
389.300,7.839999999999971,0.417008
391.854,7.849999999999971,0.417278
394.490,7.859999999999971,0.417263
397.142,7.869999999999971,0.417088
399.734,7.879999999999971,0.41704
402.287,7.88999999999997,0.417294
404.939,7.89999999999997,0.417247
407.592,7.90999999999997,0.417358
410.407,7.91999999999997,0.417088
413.035,7.9299999999999695,0.417008
415.661,7.939999999999969,0.416897
418.216,7.949999999999969,0.417104
420.772,7.959999999999969,0.417119
423.536,7.969999999999969,0.417024
426.173,7.9799999999999685,0.416849
428.824,7.989999999999968,0.417104
431.413,7.999999999999968,0.416547
434.033,8.009999999999968,0.417024
436.590,8.019999999999968,0.41704
439.147,8.029999999999967,0.417199
441.703,8.039999999999967,0.416817
444.260,8.049999999999967,0.416976
446.912,8.059999999999967,0.416754
449.468,8.069999999999967,0.41677
452.038,8.079999999999966,0.416976
454.708,8.089999999999966,0.416547
457.265,8.099999999999966,0.416881
459.935,8.109999999999966,0.416754
462.634,8.119999999999965,0.417151
465.302,8.129999999999965,0.417072
467.953,8.139999999999965,0.41704
470.603,8.149999999999965,0.41739
473.242,8.159999999999965,0.417135
475.798,8.169999999999964,0.416897
478.482,8.179999999999964,0.417135
481.038,8.189999999999964,0.416865
483.722,8.199999999999964,0.416579
486.315,8.209999999999964,0.416627
488.867,8.219999999999963,0.416961
491.535,8.229999999999963,0.416881
494.204,8.239999999999963,0.416786
496.861,8.249999999999963,0.416245
499.466,8.259999999999962,0.416627
502.074,8.269999999999962,0.416627
505.021,8.279999999999962,0.416722
507.576,8.289999999999962,0.416595
510.133,8.299999999999962,0.416182
512.801,8.309999999999961,0.416293
515.358,8.319999999999961,0.416356
517.914,8.329999999999961,0.416404
520.471,8.33999999999996,0.416595
523.122,8.34999999999996,0.416229
525.679,8.35999999999996,0.4165
528.251,8.36999999999996,0.416388
530.808,8.37999999999996,0.416388
533.513,8.38999999999996,0.415911
536.560,8.39999999999996,0.416182
539.228,8.40999999999996,0.416198
541.896,8.419999999999959,0.416786
544.549,8.429999999999959,0.416738
547.128,8.439999999999959,0.416643
549.678,8.449999999999958,0.416563
552.267,8.459999999999958,0.416945
554.950,8.469999999999958,0.41669
557.538,8.479999999999958,0.416738
560.095,8.489999999999958,0.416563
562.651,8.499999999999957,0.416738
565.340,8.509999999999957,0.41677
567.987,8.519999999999957,0.416722
570.544,8.529999999999957,0.417294
573.148,8.539999999999957,0.417056
575.705,8.549999999999956,0.417056
578.335,8.559999999999956,0.417151
580.882,8.569999999999956,0.416786
583.438,8.579999999999956,0.416627
586.026,8.589999999999955,0.416531
588.583,8.599999999999955,0.416897
591.156,8.609999999999955,0.416976
593.759,8.619999999999955,0.417008
596.316,8.629999999999955,0.416945
598.936,8.639999999999954,0.4165
601.556,8.649999999999954,0.416468
604.113,8.659999999999954,0.41677
606.765,8.669999999999954,0.416627
609.321,8.679999999999954,0.41669
611.997,8.689999999999953,0.416865
614.610,8.699999999999953,0.417088
617.166,8.709999999999953,0.41704
619.799,8.719999999999953,0.416754
622.358,8.729999999999952,0.416992
624.914,8.739999999999952,0.41677
627.535,8.749999999999952,0.416881
630.204,8.759999999999952,0.416817
632.824,8.769999999999952,0.416611
635.542,8.779999999999951,0.416706
638.415,8.789999999999951,0.416849
641.052,8.799999999999951,0.417088
643.609,8.80999999999995,0.416881
646.544,8.81999999999995,0.416833
649.185,8.82999999999995,0.417119
651.823,8.83999999999995,0.416786
654.489,8.84999999999995,0.417119
657.268,8.85999999999995,0.416897
659.873,8.86999999999995,0.416833
662.632,8.87999999999995,0.416802
665.437,8.889999999999949,0.416706
668.064,8.899999999999949,0.416563
670.738,8.909999999999949,0.416515
673.374,8.919999999999948,0.416738
675.915,8.929999999999948,0.416436
678.647,8.939999999999948,0.416547
681.251,8.949999999999948,0.416643
683.904,8.959999999999948,0.416754
686.460,8.969999999999947,0.416674
689.106,8.979999999999947,0.416515
691.752,8.989999999999947,0.416404
694.385,8.999999999999947,0.416245
697.260,9.009999999999946,0.416277
699.816,9.019999999999946,0.416404
702.373,9.029999999999946,0.416261
704.977,9.039999999999946,0.416261
707.629,9.049999999999946,0.415911
710.185,9.059999999999945,0.416245
712.742,9.069999999999945,0.416134
715.299,9.079999999999945,0.416023
717.855,9.089999999999945,0.416086
720.699,9.099999999999945,0.416118
723.471,9.109999999999944,0.416007
726.021,9.119999999999944,0.416023
728.608,9.129999999999944,0.416134
731.164,9.139999999999944,0.416007
733.720,9.149999999999944,0.415943
736.276,9.159999999999943,0.415911
738.832,9.169999999999943,0.416118
741.389,9.179999999999943,0.415927
744.129,9.189999999999943,0.415975
746.693,9.199999999999942,0.416182
749.390,9.209999999999942,0.416134
752.286,9.219999999999942,0.415848
755.051,9.229999999999942,0.415959
757.706,9.239999999999942,0.41615
760.466,9.249999999999941,0.41553
763.461,9.259999999999941,0.415832
766.062,9.269999999999941,0.415784
768.727,9.27999999999994,0.415721
771.363,9.28999999999994,0.415609
774.086,9.29999999999994,0.415498
776.639,9.30999999999994,0.41553
779.392,9.31999999999994,0.415482
782.222,9.32999999999994,0.415371
784.947,9.33999999999994,0.415498
787.611,9.34999999999994,0.415466
790.656,9.359999999999939,0.415657
793.529,9.369999999999939,0.415752
796.415,9.379999999999939,0.415737
799.137,9.389999999999938,0.415546
801.703,9.399999999999938,0.415371
804.356,9.409999999999938,0.415514
807.054,9.419999999999938,0.41545
809.930,9.429999999999938,0.415291
812.601,9.439999999999937,0.415403
815.607,9.449999999999937,0.415371
818.285,9.459999999999937,0.415244
820.845,9.469999999999937,0.415403
823.739,9.479999999999936,0.415419
826.489,9.489999999999936,0.415546
829.220,9.499999999999936,0.41545
831.774,9.509999999999936,0.415323
834.538,9.519999999999936,0.415021
837.173,9.529999999999935,0.41526
839.953,9.539999999999935,0.415291
842.510,9.549999999999935,0.415482
845.161,9.559999999999935,0.415371
847.778,9.569999999999935,0.415276
850.341,9.579999999999934,0.415133
852.985,9.589999999999934,0.415355
855.578,9.599999999999934,0.415053
858.209,9.609999999999934,0.415244
861.031,9.619999999999933,0.415037
863.800,9.629999999999933,0.415148
866.378,9.639999999999933,0.414989
868.937,9.649999999999933,0.415037
871.567,9.659999999999933,0.415228
874.112,9.669999999999932,0.414942
876.668,9.679999999999932,0.415212
879.373,9.689999999999932,0.414989
882.097,9.699999999999932,0.414783
884.810,9.709999999999932,0.414735
887.469,9.719999999999931,0.414894
890.042,9.729999999999931,0.415005
892.757,9.739999999999931,0.415133
895.442,9.74999999999993,0.415037
898.205,9.75999999999993,0.415196
900.986,9.76999999999993,0.415085
903.623,9.77999999999993,0.415117
906.608,9.78999999999993,0.414862
909.382,9.79999999999993,0.415244
912.067,9.80999999999993,0.415148
914.701,9.81999999999993,0.415196
917.568,9.829999999999929,0.414846
920.191,9.839999999999929,0.414926
922.777,9.849999999999929,0.414862
925.445,9.859999999999928,0.415117
928.215,9.869999999999928,0.415307
931.004,9.879999999999928,0.415291
933.767,9.889999999999928,0.415148
936.511,9.899999999999928,0.415005
939.152,9.909999999999927,0.414958
941.949,9.919999999999927,0.415101
944.643,9.929999999999927,0.414592
947.394,9.939999999999927,0.414783
950.458,9.949999999999926,0.414735
953.266,9.959999999999926,0.414528
956.231,9.969999999999926,0.414735
958.956,9.979999999999926,0.414401
961.602,9.989999999999926,0.41464
964.217,9.999999999999925,0.414767
966.789,10.009999999999925,0.414751
969.359,10.509999999999925,0.414083
971.980,11.009999999999925,0.414179
974.562,11.509999999999925,0.413861
977.166,12.009999999999925,0.413304
979.772,12.509999999999925,0.413622
982.380,13.009999999999925,0.413543
985.024,13.509999999999925,0.413098
987.668,14.009999999999925,0.413209
990.359,14.509999999999925,0.413479
992.962,15.009999999999925,0.413463
995.524,15.509999999999925,0.413622
998.582,16.009999999999927,0.4134
1001.431,16.509999999999927,0.413765
1004.325,17.009999999999927,0.413495
1007.040,17.509999999999927,0.41375
1009.860,18.009999999999927,0.413575
1012.553,18.509999999999927,0.413479
1015.254,19.009999999999927,0.413622
1017.908,19.509999999999927,0.413575
1020.465,20.009999999999927,0.413225
1023.091,20.509999999999927,0.413463
1026.084,21.009999999999927,0.413479
1028.758,21.509999999999927,0.413622
1031.441,22.009999999999927,0.413336
1034.121,22.509999999999927,0.413352
1036.805,23.009999999999927,0.413336
1039.366,23.509999999999927,0.413543
1042.009,24.009999999999927,0.413591
1044.575,24.509999999999927,0.41332
