Time [s],Position [mm],Power [W]
0.003,0,0.431912
2.056,0.04,0.432262
4.613,0.08,0.432023
7.166,0.12,0.431435
9.725,0.16,0.431499
12.281,0.2,0.431705
14.837,0.24000000000000002,0.431403
17.425,0.28,0.432055
19.982,0.32,0.431928
22.537,0.36,0.431642
25.094,0.39999999999999997,0.431817
27.651,0.43999999999999995,0.431896
30.208,0.4799999999999999,0.431753
32.764,0.5199999999999999,0.432008
35.320,0.5599999999999999,0.431896
37.876,0.6,0.431785
40.481,0.64,0.431801
43.036,0.68,0.432119
45.595,0.7200000000000001,0.431976
48.150,0.7600000000000001,0.43196
50.707,0.8000000000000002,0.431849
53.262,0.8400000000000002,0.431737
55.818,0.8800000000000002,0.431833
58.376,0.9200000000000003,0.431912
60.931,0.9600000000000003,0.431817
63.488,1.0000000000000002,0.432135
66.060,1.0400000000000003,0.432151
68.617,1.0800000000000003,0.431721
71.174,1.1200000000000003,0.43196
73.730,1.1600000000000004,0.43188
76.286,1.2000000000000004,0.431896
78.843,1.2400000000000004,0.431769
81.399,1.2800000000000005,0.43196
83.956,1.3200000000000005,0.431992
86.527,1.3600000000000005,0.431626
89.085,1.4000000000000006,0.43188
91.641,1.4400000000000006,0.431944
94.228,1.4800000000000006,0.431833
96.784,1.5200000000000007,0.431912
99.341,1.5600000000000007,0.432008
101.899,1.6000000000000008,0.431976
104.453,1.6400000000000008,0.431801
107.009,1.6800000000000008,0.431912
109.568,1.7200000000000009,0.431912
112.122,1.760000000000001,0.431896
114.680,1.800000000000001,0.431721
117.268,1.840000000000001,0.431594
119.823,1.880000000000001,0.431705
122.380,1.920000000000001,0.431864
124.935,1.960000000000001,0.43196
127.492,2.000000000000001,0.431578
130.051,2.040000000000001,0.431896
132.653,2.080000000000001,0.431737
135.210,2.120000000000001,0.432008
137.766,2.160000000000001,0.431833
140.322,2.200000000000001,0.432055
142.880,2.240000000000001,0.431849
145.437,2.280000000000001,0.431944
147.991,2.320000000000001,0.431912
150.563,2.360000000000001,0.431944
153.120,2.4000000000000012,0.431912
155.677,2.4400000000000013,0.43188
158.233,2.4800000000000013,0.431689
160.790,2.5200000000000014,0.431769
163.346,2.5600000000000014,0.432023
165.919,2.6000000000000014,0.432055
168.476,2.6400000000000015,0.432039
171.032,2.6800000000000015,0.432023
173.587,2.7200000000000015,0.431626
176.146,2.7600000000000016,0.431864
178.699,2.8000000000000016,0.431912
181.257,2.8400000000000016,0.432023
183.814,2.8800000000000017,0.431817
186.368,2.9200000000000017,0.431785
188.925,2.9600000000000017,0.431896
191.481,3.0000000000000018,0.432087
194.040,3.040000000000002,0.431976
196.596,3.080000000000002,0.431753
199.214,3.120000000000002,0.431976
201.771,3.160000000000002,0.43161
204.327,3.200000000000002,0.431753
206.884,3.240000000000002,0.431674
209.456,3.280000000000002,0.432023
212.013,3.320000000000002,0.431578
214.571,3.360000000000002,0.431737
217.142,3.400000000000002,0.431642
219.714,3.440000000000002,0.431371
222.289,3.480000000000002,0.431737
224.843,3.5200000000000022,0.431785
227.399,3.5600000000000023,0.431769
229.956,3.6000000000000023,0.431737
232.511,3.6400000000000023,0.431483
235.069,3.6800000000000024,0.431658
237.625,3.7200000000000024,0.431515
240.181,3.7600000000000025,0.43153
242.736,3.8000000000000025,0.431737
245.294,3.8400000000000025,0.43188
247.851,3.8800000000000026,0.431769
250.408,3.9200000000000026,0.43188
252.965,3.9600000000000026,0.431689
255.536,4.000000000000003,0.43153
258.091,4.040000000000003,0.431546
260.648,4.080000000000003,0.431435
263.205,4.120000000000003,0.431244
265.777,4.160000000000003,0.43161
268.334,4.200000000000003,0.431737
270.898,4.240000000000003,0.431515
273.448,4.280000000000003,0.431594
276.002,4.320000000000003,0.431674
278.561,4.360000000000003,0.431578
281.115,4.400000000000003,0.43134
283.672,4.440000000000003,0.431515
286.230,4.480000000000003,0.431451
288.796,4.520000000000003,0.431069
291.341,4.560000000000003,0.431308
293.898,4.600000000000003,0.431324
296.455,4.640000000000003,0.431053
299.012,4.680000000000003,0.431165
301.566,4.720000000000003,0.431228
304.125,4.760000000000003,0.431308
306.682,4.800000000000003,0.431308
309.239,4.840000000000003,0.431356
311.794,4.8800000000000034,0.430926
314.348,4.9200000000000035,0.431037
316.904,4.9600000000000035,0.431037
319.462,5.0000000000000036,0.431069
322.021,5.040000000000004,0.430974
324.593,5.080000000000004,0.430799
327.147,5.120000000000004,0.430974
329.703,5.160000000000004,0.430847
332.260,5.200000000000004,0.430862
334.817,5.240000000000004,0.430608
337.372,5.280000000000004,0.430226
339.930,5.320000000000004,0.430529
342.485,5.360000000000004,0.430735
345.057,5.400000000000004,0.430767
347.614,5.440000000000004,0.430544
350.185,5.480000000000004,0.43029
352.742,5.520000000000004,0.430274
355.299,5.560000000000004,0.430179
357.854,5.600000000000004,0.430036
360.412,5.640000000000004,0.429924
362.968,5.680000000000004,0.429686
365.523,5.720000000000004,0.429686
368.082,5.760000000000004,0.429892
370.640,5.800000000000004,0.429654
373.192,5.840000000000004,0.429558
375.765,5.880000000000004,0.429447
378.321,5.920000000000004,0.429193
380.877,5.960000000000004,0.428716
383.434,6.000000000000004,0.428525
385.993,6.0400000000000045,0.42897
388.548,6.0800000000000045,0.428684
391.104,6.1200000000000045,0.428302
393.661,6.160000000000005,0.428413
396.256,6.200000000000005,0.428286
398.820,6.240000000000005,0.428
401.389,6.280000000000005,0.427873
403.949,6.320000000000005,0.427539
406.506,6.360000000000005,0.427825
409.063,6.400000000000005,0.427459
411.620,6.440000000000005,0.427062
414.175,6.480000000000005,0.426585
416.731,6.520000000000005,0.425964
419.287,6.560000000000005,0.425551
421.846,6.600000000000005,0.42509
424.400,6.640000000000005,0.424294
426.957,6.680000000000005,0.423229
429.513,6.720000000000005,0.422529
432.071,6.760000000000005,0.42175
434.673,6.800000000000005,0.420732
437.293,6.840000000000005,0.419985
439.850,6.880000000000005,0.419333
442.406,6.920000000000005,0.418617
444.962,6.960000000000005,0.41884
447.520,7.000000000000005,0.418442
450.075,7.040000000000005,0.41814
452.632,7.080000000000005,0.417695
455.188,7.120000000000005,0.416788
457.744,7.1600000000000055,0.41612
460.302,7.2000000000000055,0.415086
462.858,7.2400000000000055,0.413544
465.414,7.280000000000006,0.412256
467.970,7.320000000000006,0.410522
470.526,7.360000000000006,0.409647
473.084,7.400000000000006,0.408757
475.639,7.440000000000006,0.407978
478.197,7.480000000000006,0.40758
480.753,7.520000000000006,0.407437
483.309,7.560000000000006,0.4082
485.865,7.600000000000006,0.408725
488.422,7.640000000000006,0.409695
490.979,7.680000000000006,0.411492
493.535,7.720000000000006,0.412924
496.091,7.760000000000006,0.41445
498.647,7.800000000000006,0.416072
501.204,7.840000000000006,0.417408
503.760,7.880000000000006,0.417933
506.317,7.920000000000006,0.41806
508.873,7.960000000000006,0.418569
511.494,8.000000000000005,0.418553
514.049,8.040000000000004,0.418951
516.622,8.080000000000004,0.419746
519.177,8.120000000000003,0.420621
521.751,8.160000000000002,0.421209
524.306,8.200000000000001,0.421639
526.865,8.24,0.422338
529.419,8.28,0.423229
531.975,8.319999999999999,0.423976
534.533,8.359999999999998,0.424644
537.088,8.399999999999997,0.425233
539.644,8.439999999999996,0.425901
542.216,8.479999999999995,0.426664
544.772,8.519999999999994,0.427062
547.331,8.559999999999993,0.427634
549.885,8.599999999999993,0.427936
552.442,8.639999999999992,0.428286
554.997,8.67999999999999,0.428747
557.651,8.71999999999999,0.429129
560.208,8.75999999999999,0.429177
562.763,8.799999999999988,0.429924
565.318,8.839999999999987,0.430226
567.876,8.879999999999987,0.430449
570.545,8.919999999999986,0.430385
573.102,8.959999999999985,0.430958
575.658,8.999999999999984,0.430767
578.212,9.039999999999983,0.430894
580.770,9.079999999999982,0.430767
583.326,9.119999999999981,0.431022
585.882,9.15999999999998,0.43099
588.439,9.19999999999998,0.431228
590.995,9.239999999999979,0.431276
593.551,9.279999999999978,0.431053
596.106,9.319999999999977,0.431006
598.665,9.359999999999976,0.43126
601.222,9.399999999999975,0.431371
603.777,9.439999999999975,0.431451
606.335,9.479999999999974,0.431419
608.890,9.519999999999973,0.431276
611.448,9.559999999999972,0.431499
614.003,9.599999999999971,0.431562
616.561,9.63999999999997,0.431467
619.116,9.67999999999997,0.431546
621.672,9.719999999999969,0.431562
624.276,9.759999999999968,0.431642
626.835,9.799999999999967,0.431435
629.390,9.839999999999966,0.431546
631.948,9.879999999999965,0.431451
634.502,9.919999999999964,0.431785
637.059,9.959999999999964,0.431801
639.616,9.999999999999963,0.431578
642.172,10.039999999999962,0.43161
644.728,10.079999999999961,0.431849
647.284,10.11999999999996,0.431817
649.842,10.15999999999996,0.431467
652.398,10.199999999999958,0.431642
654.985,10.239999999999958,0.431849
657.542,10.279999999999957,0.431976
660.099,10.319999999999956,0.431928
662.654,10.359999999999955,0.431721
665.211,10.399999999999954,0.431737
667.766,10.439999999999953,0.431976
670.324,10.479999999999952,0.431753
672.880,10.519999999999952,0.431849
675.436,10.55999999999995,0.431674
677.997,10.59999999999995,0.431689
680.580,10.639999999999949,0.431976
683.139,10.679999999999948,0.43153
685.788,10.719999999999947,0.431737
688.346,10.759999999999946,0.431626
690.903,10.799999999999946,0.431801
693.469,10.839999999999945,0.431689
696.062,10.879999999999944,0.431689
698.618,10.919999999999943,0.431546
701.193,10.959999999999942,0.431626
703.747,10.999999999999941,0.431578
706.303,11.03999999999994,0.431419
708.860,11.07999999999994,0.431562
711.416,11.119999999999939,0.431371
713.974,11.159999999999938,0.43188
716.529,11.199999999999937,0.431308
719.084,11.239999999999936,0.431212
721.643,11.279999999999935,0.431308
724.231,11.319999999999935,0.431387
726.787,11.359999999999934,0.431228
729.343,11.399999999999933,0.431546
731.932,11.439999999999932,0.431165
734.489,11.479999999999931,0.431149
737.043,11.51999999999993,0.431085
739.632,11.55999999999993,0.431006
742.188,11.599999999999929,0.431037
744.747,11.639999999999928,0.430862
747.303,11.679999999999927,0.431149
749.885,11.719999999999926,0.431022
752.429,11.759999999999925,0.431022
754.987,11.799999999999924,0.430688
757.543,11.839999999999923,0.431562
760.100,11.879999999999923,0.431801
762.656,11.919999999999922,0.430576
765.212,11.959999999999921,0.431149
767.784,11.99999999999992,0.431515
770.340,12.03999999999992,0.431515
772.910,12.079999999999918,0.431292
775.500,12.119999999999918,0.431324
778.059,12.159999999999917,0.431356
780.644,12.199999999999916,0.431212
783.203,12.239999999999915,0.431356
785.758,12.279999999999914,0.431181
788.316,12.319999999999913,0.431117
790.871,12.359999999999912,0.431228
793.445,12.399999999999912,0.431133
796.001,12.43999999999991,0.431324
798.557,12.47999999999991,0.431101
801.114,12.519999999999909,0.430894
803.671,12.559999999999908,0.430974
806.531,12.599999999999907,0.431196
809.087,12.639999999999906,0.431403
811.643,12.679999999999906,0.431292
814.231,12.719999999999905,0.431006
816.787,12.759999999999904,0.431053
819.344,12.799999999999903,0.431069
821.900,12.839999999999902,0.430862
824.458,12.879999999999901,0.431276
827.091,12.9199999999999,0.431308
829.650,12.9599999999999,0.431101
832.205,12.999999999999899,0.431181
