Time [s],Position [mm],Power [W]
0.013,0,0.444109
5.083,0.1,0.444256
10.658,0.2,0.444301
16.219,0.30000000000000004,0.444168
21.809,0.4,0.44436
27.385,0.5,0.444375
32.959,0.6,0.44433
38.551,0.7,0.444389
44.127,0.7999999999999999,0.444345
49.704,0.8999999999999999,0.444404
55.280,0.9999999999999999,0.444478
60.854,1.0999999999999999,0.444478
66.445,1.2,0.444375
72.021,1.3,0.444522
77.580,1.4000000000000001,0.444478
83.172,1.5000000000000002,0.444537
88.730,1.6000000000000003,0.444744
94.324,1.7000000000000004,0.444493
99.914,1.8000000000000005,0.4447
105.477,1.9000000000000006,0.444714
111.049,2.0000000000000004,0.444803
116.624,2.1000000000000005,0.444833
122.215,2.2000000000000006,0.444877
127.816,2.3000000000000007,0.444744
133.384,2.400000000000001,0.445025
138.958,2.500000000000001,0.444655
144.541,2.600000000000001,0.444567
150.125,2.700000000000001,0.444833
155.701,2.800000000000001,0.444833
161.277,2.9000000000000012,0.444936
166.868,3.0000000000000013,0.444714
172.461,3.1000000000000014,0.444833
178.020,3.2000000000000015,0.444833
183.612,3.3000000000000016,0.444759
189.188,3.4000000000000017,0.444833
194.764,3.5000000000000018,0.444744
200.339,3.600000000000002,0.444921
205.931,3.700000000000002,0.444847
211.523,3.800000000000002,0.44467
217.114,3.900000000000002,0.444759
222.706,4.000000000000002,0.444921
228.264,4.100000000000001,0.444818
233.857,4.200000000000001,0.444966
239.431,4.300000000000001,0.444803
245.006,4.4,0.444818
250.565,4.5,0.444803
256.141,4.6,0.444921
261.732,4.699999999999999,0.44498
267.358,4.799999999999999,0.445025
272.933,4.899999999999999,0.444685
278.507,4.999999999999998,0.44498
284.067,5.099999999999998,0.444773
289.643,5.1999999999999975,0.444995
295.201,5.299999999999997,0.445025
300.761,5.399999999999997,0.444862
306.353,5.4999999999999964,0.444966
311.928,5.599999999999996,0.445291
317.488,5.699999999999996,0.445557
323.079,5.799999999999995,0.44535
328.655,5.899999999999995,0.445217
334.247,5.999999999999995,0.445069
339.805,6.099999999999994,0.445128
345.397,6.199999999999994,0.445099
350.974,6.299999999999994,0.445084
356.548,6.399999999999993,0.445379
362.127,6.499999999999993,0.444906
367.715,6.5999999999999925,0.44501
373.307,6.699999999999992,0.445305
378.948,6.799999999999992,0.445187
384.561,6.8999999999999915,0.445365
390.144,6.999999999999991,0.445704
395.705,7.099999999999991,0.446295
401.327,7.19999999999999,0.446369
406.887,7.29999999999999,0.446162
412.463,7.39999999999999,0.446369
418.102,7.499999999999989,0.446724
423.662,7.599999999999989,0.447862
429.222,7.699999999999989,0.448512
434.780,7.799999999999988,0.448763
440.340,7.899999999999988,0.449162
445.903,7.999999999999988,0.449044
451.463,8.099999999999987,0.449103
457.036,8.199999999999987,0.449103
462.610,8.299999999999986,0.449221
468.171,8.399999999999986,0.449206
473.746,8.499999999999986,0.449
479.305,8.599999999999985,0.448911
484.880,8.699999999999985,0.44866
490.473,8.799999999999985,0.448231
496.064,8.899999999999984,0.448009
501.640,8.999999999999984,0.447773
507.216,9.099999999999984,0.447226
512.791,9.199999999999983,0.447005
518.367,9.299999999999983,0.446517
523.959,9.399999999999983,0.446458
529.534,9.499999999999982,0.446192
535.109,9.599999999999982,0.446236
540.685,9.699999999999982,0.445867
546.277,9.799999999999981,0.445837
551.858,9.89999999999998,0.445808
557.428,9.99999999999998,0.445749
563.020,10.09999999999998,0.445498
568.594,10.19999999999998,0.44535
574.171,10.29999999999998,0.445424
579.764,10.399999999999979,0.44535
585.322,10.499999999999979,0.445276
590.915,10.599999999999978,0.445187
596.506,10.699999999999978,0.44535
602.115,10.799999999999978,0.445143
607.704,10.899999999999977,0.445084
613.296,10.999999999999977,0.44501
618.873,11.099999999999977,0.445054
624.432,11.199999999999976,0.444892
629.991,11.299999999999976,0.444847
635.551,11.399999999999975,0.445172
641.143,11.499999999999975,0.445069
646.702,11.599999999999975,0.444921
652.262,11.699999999999974,0.444655
657.836,11.799999999999974,0.44501
663.411,11.899999999999974,0.4447
668.973,11.999999999999973,0.444966
674.532,12.099999999999973,0.444906
680.107,12.199999999999973,0.444685
685.667,12.299999999999972,0.444759
691.259,12.399999999999972,0.444892
696.849,12.499999999999972,0.444936
702.425,12.599999999999971,0.444877
708.000,12.69999999999997,0.444759
713.576,12.79999999999997,0.444714
719.151,12.89999999999997,0.4447
724.711,12.99999999999997,0.444641
730.304,13.09999999999997,0.444729
735.862,13.199999999999969,0.444655
741.437,13.299999999999969,0.444847
747.045,13.399999999999968,0.444729
752.621,13.499999999999968,0.444714
758.213,13.599999999999968,0.444626
763.789,13.699999999999967,0.444818
769.364,13.799999999999967,0.444641
774.940,13.899999999999967,0.444729
780.516,13.999999999999966,0.444655
786.090,14.099999999999966,0.444552
791.650,14.199999999999966,0.444847
797.242,14.299999999999965,0.444581
802.817,14.399999999999965,0.444729
808.441,14.499999999999964,0.444641
814.031,14.599999999999964,0.44467
819.622,14.699999999999964,0.444641
825.183,14.799999999999963,0.444877
830.759,14.899999999999963,0.444729
836.335,14.999999999999963,0.444611
841.894,15.099999999999962,0.444508
847.483,15.199999999999962,0.444419
853.125,15.299999999999962,0.444759
858.684,15.399999999999961,0.444537
864.262,15.499999999999961,0.444463
869.835,15.59999999999996,0.444759
875.396,15.69999999999996,0.444685
880.971,15.79999999999996,0.4447
886.530,15.89999999999996,0.444744
892.122,15.99999999999996,0.444714
897.777,16.09999999999996,0.44467
903.343,16.19999999999996,0.444641
908.913,16.29999999999996,0.444685
914.487,16.399999999999963,0.444655
920.047,16.499999999999964,0.444508
925.622,16.599999999999966,0.444448
931.214,16.699999999999967,0.444537
936.790,16.79999999999997,0.444685
942.348,16.89999999999997,0.444611
947.956,16.99999999999997,0.444552
953.515,17.099999999999973,0.444818
959.107,17.199999999999974,0.444596
964.683,17.299999999999976,0.44467
970.257,17.399999999999977,0.444655
975.833,17.49999999999998,0.444626
981.409,17.59999999999998,0.444803
986.968,17.69999999999998,0.444685
992.544,17.799999999999983,0.444729
998.120,17.899999999999984,0.444552
1003.680,17.999999999999986,0.444552
1009.274,18.099999999999987,0.444641
1014.829,18.19999999999999,0.444847
1020.435,18.29999999999999,0.444596
1026.045,18.39999999999999,0.444478
1031.636,18.499999999999993,0.444567
1037.228,18.599999999999994,0.444833
1042.788,18.699999999999996,0.444833
1048.363,18.799999999999997,0.4447
1053.938,18.9,0.444552
1059.529,19.0,0.444803
1065.106,19.1,0.444818
1070.666,19.200000000000003,0.444641
1076.240,19.300000000000004,0.444714
1081.815,19.400000000000006,0.444744
1087.391,19.500000000000007,0.444788
1092.950,19.60000000000001,0.444833
1098.509,19.70000000000001,0.444611
1104.101,19.80000000000001,0.444567
1109.661,19.900000000000013,0.444744
1115.252,20.000000000000014,0.444862
1120.812,20.100000000000016,0.444626
1126.376,20.200000000000017,0.444655
1131.931,20.30000000000002,0.444611
1137.523,20.40000000000002,0.444685
1143.114,20.50000000000002,0.444818
1148.706,20.600000000000023,0.444877
1154.281,20.700000000000024,0.444788
1159.842,20.800000000000026,0.44467
1165.402,20.900000000000027,0.444714
1170.960,21.00000000000003,0.444655
1176.536,21.10000000000003,0.4447
1182.112,21.20000000000003,0.44467
1187.703,21.300000000000033,0.444818
1193.278,21.400000000000034,0.4447
1198.838,21.500000000000036,0.444729
1204.414,21.600000000000037,0.444921
1209.991,21.70000000000004,0.444626
1215.567,21.80000000000004,0.444714
1221.126,21.90000000000004,0.44467
1226.717,22.000000000000043,0.444759
1232.278,22.100000000000044,0.444714
1237.885,22.200000000000045,0.444611
1243.476,22.300000000000047,0.444818
1249.052,22.40000000000005,0.444729
1254.645,22.50000000000005,0.444788
1260.203,22.60000000000005,0.444936
1265.763,22.700000000000053,0.444655
1271.323,22.800000000000054,0.444759
1276.883,22.900000000000055,0.4447
1282.458,23.000000000000057,0.444862
1288.034,23.10000000000006,0.444892
1293.604,23.20000000000006,0.444596
1299.185,23.30000000000006,0.444478
1304.745,23.400000000000063,0.444803
1310.321,23.500000000000064,0.444862
1315.879,23.600000000000065,0.444847
1321.439,23.700000000000067,0.44467
1327.014,23.800000000000068,0.444685
1332.605,23.90000000000007,0.444818
1338.224,24.00000000000007,0.445025
1343.869,24.100000000000072,0.444744
1349.460,24.200000000000074,0.444803
1355.054,24.300000000000075,0.444833
1360.627,24.400000000000077,0.444847
1366.202,24.500000000000078,0.444744
1371.794,24.60000000000008,0.444596
1377.374,24.70000000000008,0.444847
1382.929,24.800000000000082,0.444906
1388.508,24.900000000000084,0.444877
