Time [s],Position [mm],Power1 [W],Power2 [W]
0.000,0,4.92068,0.42685
2.278,0.1,4.91957,0.426835
5.059,0.2,4.92052,0.426924
7.870,0.30000000000000004,4.92021,0.426909
10.650,0.4,4.92021,0.426717
13.462,0.5,4.92005,0.426968
16.241,0.6,4.92005,0.42685
19.021,0.7,4.92005,0.42685
21.833,0.7999999999999999,4.92068,0.426968
24.630,0.8999999999999999,4.92005,0.426968
27.410,0.9999999999999999,4.91957,0.426909
30.205,1.0999999999999999,4.92036,0.426953
33.001,1.2,4.92005,0.426879
35.797,1.3,4.92021,0.426717
38.595,1.4000000000000001,4.92036,0.426909
41.404,1.5000000000000002,4.91973,0.426879
44.201,1.6000000000000003,4.91989,0.426865
47.013,1.7000000000000004,4.92036,0.426968
49.824,1.8000000000000005,4.91957,0.426894
52.621,1.9000000000000006,4.92068,0.426865
55.417,2.0000000000000004,4.91973,0.426746
58.214,2.1000000000000005,4.92068,0.426924
60.993,2.2000000000000006,4.92084,0.426865
63.790,2.3000000000000007,4.92021,0.42682
66.600,2.400000000000001,4.92005,0.426909
69.396,2.500000000000001,4.92005,0.426924
72.176,2.600000000000001,4.92021,0.426879
74.971,2.700000000000001,4.92052,0.426879
77.767,2.800000000000001,4.92036,0.426909
80.579,2.9000000000000012,4.92021,0.426879
83.376,3.0000000000000013,4.92021,0.426968
86.173,3.1000000000000014,4.92068,0.427042
88.952,3.2000000000000015,4.91941,0.427057
91.764,3.3000000000000016,4.92052,0.426998
94.559,3.4000000000000017,4.92036,0.426702
97.371,3.5000000000000018,4.91973,0.426939
100.184,3.600000000000002,4.91989,0.426939
102.979,3.700000000000002,4.92036,0.426924
105.759,3.800000000000002,4.92021,0.427072
108.555,3.900000000000002,4.92005,0.427027
111.367,4.000000000000002,4.91989,0.427116
114.163,4.100000000000001,4.92005,0.42719
116.945,4.200000000000001,4.92021,0.427027
119.739,4.300000000000001,4.91989,0.42716
122.535,4.4,4.92036,0.426879
125.347,4.5,4.92021,0.426983
128.142,4.6,4.92021,0.426924
130.922,4.699999999999999,4.92036,0.427145
133.718,4.799999999999999,4.92005,0.42719
136.514,4.899999999999999,4.92021,0.427057
139.310,4.999999999999998,4.92068,0.426894
142.123,5.099999999999998,4.92036,0.427057
144.942,5.1999999999999975,4.91989,0.427101
147.714,5.299999999999997,4.92036,0.427131
150.512,5.399999999999997,4.91989,0.427308
153.337,5.4999999999999964,4.91989,0.427219
156.134,5.599999999999996,4.92052,0.42716
158.961,5.699999999999996,4.92005,0.427441
161.804,5.799999999999995,4.92052,0.427308
164.600,5.899999999999995,4.92036,0.427205
167.412,5.999999999999995,4.92021,0.427219
170.209,6.099999999999994,4.92005,0.42719
172.988,6.199999999999994,4.92068,0.42716
175.800,6.299999999999994,4.91973,0.426968
178.612,6.399999999999993,4.92021,0.427101
181.424,6.499999999999993,4.92021,0.427323
184.236,6.5999999999999925,4.92021,0.427574
187.031,6.699999999999992,4.92021,0.427736
189.843,6.799999999999992,4.91941,0.427751
192.623,6.8999999999999915,4.92005,0.427869
195.435,6.999999999999991,4.92036,0.428135
198.215,7.099999999999991,4.92005,0.428564
201.013,7.19999999999999,4.92084,0.428727
203.823,7.29999999999999,4.92068,0.428859
206.619,7.39999999999999,4.92005,0.429022
209.398,7.499999999999989,4.92005,0.429377
212.178,7.599999999999989,4.92005,0.430278
214.974,7.699999999999989,4.92052,0.43078
217.769,7.799999999999988,4.92068,0.430958
220.566,7.899999999999988,4.92005,0.430913
223.347,7.999999999999988,4.92036,0.43081
226.128,8.099999999999987,4.92021,0.430795
228.938,8.199999999999987,4.92005,0.430854
231.750,8.299999999999986,4.91957,0.430987
234.545,8.399999999999986,4.92005,0.431017
237.325,8.499999999999986,4.92021,0.43081
240.121,8.599999999999985,4.92021,0.431017
242.901,8.699999999999985,4.92084,0.430825
245.713,8.799999999999985,4.92005,0.430618
248.525,8.899999999999984,4.92005,0.430219
251.321,8.999999999999984,4.92021,0.42982
254.132,9.099999999999984,4.91973,0.429303
256.928,9.199999999999983,4.92021,0.429081
259.724,9.299999999999983,4.92005,0.428771
262.519,9.399999999999983,4.92005,0.428446
265.332,9.499999999999982,4.92021,0.428298
268.114,9.599999999999982,4.91973,0.428121
270.909,9.699999999999982,4.91941,0.427825
273.720,9.799999999999981,4.92005,0.427929
276.500,9.89999999999998,4.92005,0.427766
279.312,9.99999999999998,4.92021,0.427663
282.123,10.09999999999998,4.91989,0.427692
284.904,10.19999999999998,4.92021,0.427589
287.683,10.29999999999998,4.92036,0.427456
290.495,10.399999999999979,4.921,0.427352
293.330,10.499999999999979,4.92021,0.427367
296.167,10.599999999999978,4.91957,0.427337
298.981,10.699999999999978,4.91925,0.427219
301.783,10.799999999999978,4.91925,0.427057
304.571,10.899999999999977,4.92052,0.426983
307.367,10.999999999999977,4.91989,0.426953
310.163,11.099999999999977,4.92021,0.426806
312.991,11.199999999999976,4.92005,0.426835
315.786,11.299999999999976,4.92005,0.426687
318.582,11.399999999999975,4.92036,0.426746
321.402,11.499999999999975,4.91989,0.42682
324.189,11.599999999999975,4.91989,0.426909
326.970,11.699999999999974,4.92021,0.426894
329.749,11.799999999999974,4.91973,0.426673
332.529,11.899999999999974,4.91989,0.427012
335.310,11.999999999999973,4.92021,0.427042
338.106,12.099999999999973,4.921,0.426806
340.904,12.199999999999973,4.92036,0.426806
343.698,12.299999999999972,4.92068,0.42685
346.511,12.399999999999972,4.91989,0.426628
349.306,12.499999999999972,4.92021,0.426717
352.118,12.599999999999971,4.92005,0.426702
354.914,12.69999999999997,4.92005,0.426687
357.694,12.79999999999997,4.92084,0.426658
360.490,12.89999999999997,4.92084,0.426776
363.270,12.99999999999997,4.91989,0.426702
366.050,13.09999999999997,4.92068,0.426732
368.845,13.199999999999969,4.91989,0.426835
371.657,13.299999999999969,4.92036,0.426673
374.469,13.399999999999968,4.92005,0.426732
377.265,13.499999999999968,4.92005,0.426717
380.077,13.599999999999968,4.92005,0.426628
382.857,13.699999999999967,4.92005,0.42654
385.652,13.799999999999967,4.92052,0.42651
388.449,13.899999999999967,4.91973,0.426599
391.261,13.999999999999966,4.91989,0.426525
394.058,14.099999999999966,4.92068,0.426525
396.869,14.199999999999966,4.91973,0.426466
399.667,14.299999999999965,4.92036,0.426451
402.445,14.399999999999965,4.92084,0.426421
405.256,14.499999999999964,4.921,0.426318
408.053,14.599999999999964,4.91973,0.426318
410.867,14.699999999999964,4.91989,0.426436
413.660,14.799999999999963,4.92084,0.426613
416.457,14.899999999999963,4.92005,0.426451
419.236,14.999999999999963,4.92021,0.42651
422.016,15.099999999999962,4.92068,0.426599
424.827,15.199999999999962,4.92005,0.426451
427.624,15.299999999999962,4.92021,0.426613
430.420,15.399999999999961,4.92036,0.426599
433.200,15.499999999999961,4.92036,0.42651
435.999,15.59999999999996,4.92052,0.426481
438.808,15.69999999999996,4.92005,0.426392
441.604,15.79999999999996,4.91973,0.426407
444.480,15.89999999999996,4.92021,0.42654
447.277,15.99999999999996,4.92052,0.426525
450.089,16.09999999999996,4.92052,0.426613
452.884,16.19999999999996,4.92052,0.426466
455.681,16.29999999999996,4.92068,0.426643
458.476,16.399999999999963,4.91957,0.426673
461.257,16.499999999999964,4.91989,0.426732
464.052,16.599999999999966,4.91989,0.426732
466.864,16.699999999999967,4.92036,0.426746
469.659,16.79999999999997,4.91989,0.426732
472.457,16.89999999999997,4.92021,0.426569
475.270,16.99999999999997,4.92036,0.426658
478.096,17.099999999999973,4.92084,0.426732
480.907,17.199999999999974,4.92036,0.426776
483.688,17.299999999999976,4.92005,0.426776
486.484,17.399999999999977,4.92052,0.426732
489.280,17.49999999999998,4.92036,0.426732
492.076,17.59999999999998,4.92005,0.426673
494.871,17.69999999999998,4.92052,0.426569
497.684,17.799999999999983,4.92036,0.426673
500.495,17.899999999999984,4.91989,0.426643
503.291,17.999999999999986,4.91989,0.426761
506.103,18.099999999999987,4.92068,0.426687
508.883,18.19999999999999,4.91989,0.426761
511.678,18.29999999999999,4.92052,0.426806
514.475,18.39999999999999,4.92052,0.426702
517.254,18.499999999999993,4.92036,0.426717
520.050,18.599999999999994,4.92036,0.426717
522.830,18.699999999999996,4.92052,0.426717
525.629,18.799999999999997,4.92021,0.42682
528.422,18.9,4.92036,0.426746
531.219,19.0,4.92036,0.426776
534.014,19.1,4.91973,0.426702
536.826,19.200000000000003,4.92068,0.427012
539.606,19.300000000000004,4.92005,0.42682
542.401,19.400000000000006,4.92005,0.426732
545.182,19.500000000000007,4.92005,0.426687
547.993,19.60000000000001,4.92021,0.42682
550.805,19.70000000000001,4.91989,0.42685
553.603,19.80000000000001,4.92036,0.426791
556.413,19.900000000000013,4.92052,0.426865
559.209,20.000000000000014,4.92021,0.426791
562.020,20.100000000000016,4.92036,0.426761
564.800,20.200000000000017,4.91989,0.426673
567.596,20.30000000000002,4.92036,0.426761
570.376,20.40000000000002,4.92084,0.426835
573.156,20.50000000000002,4.92021,0.426835
575.968,20.600000000000023,4.92021,0.426658
578.764,20.700000000000024,4.92036,0.426717
581.607,20.800000000000026,4.92068,0.426569
584.388,20.900000000000027,4.92021,0.426613
587.200,21.00000000000003,4.92052,0.426732
589.995,21.10000000000003,4.91989,0.426746
592.790,21.20000000000003,4.92021,0.426687
595.634,21.300000000000033,4.91973,0.426791
598.447,21.400000000000034,4.92021,0.426879
601.259,21.500000000000036,4.92052,0.426879
604.039,21.600000000000037,4.92021,0.426791
606.851,21.70000000000004,4.91989,0.426835
609.630,21.80000000000004,4.92005,0.426865
612.444,21.90000000000004,4.92021,0.426894
615.254,22.000000000000043,4.92036,0.426835
618.035,22.100000000000044,4.92052,0.426865
620.816,22.200000000000045,4.92068,0.42682
623.641,22.300000000000047,4.92021,0.426761
626.421,22.40000000000005,4.92036,0.426791
629.234,22.50000000000005,4.91973,0.426673
632.046,22.60000000000005,4.92005,0.426835
634.874,22.700000000000053,4.91989,0.426894
637.670,22.800000000000054,4.92036,0.426968
640.514,22.900000000000055,4.92021,0.426879
643.308,23.000000000000057,4.91989,0.426761
646.121,23.10000000000006,4.92005,0.426806
648.932,23.20000000000006,4.92052,0.426806
651.731,23.30000000000006,4.91989,0.42685
654.509,23.400000000000063,4.91989,0.427042
657.305,23.500000000000064,4.92021,0.427042
660.084,23.600000000000065,4.92068,0.426879
662.865,23.700000000000067,4.92036,0.426998
665.660,23.800000000000068,4.92021,0.426983
668.504,23.90000000000007,4.92021,0.426968
671.301,24.00000000000007,4.92005,0.426998
674.112,24.100000000000072,4.92021,0.42685
676.892,24.200000000000074,4.92084,0.426806
679.688,24.300000000000075,4.91989,0.426879
682.501,24.400000000000077,4.92052,0.426865
685.311,24.500000000000078,4.92052,0.426835
688.124,24.60000000000008,4.92005,0.426702
690.919,24.70000000000008,4.92005,0.426835
693.732,24.800000000000082,4.92052,0.426879
696.511,24.900000000000084,4.92036,0.426791
