Time [s],Position [mm],Power1 [W],Power2 [W]
0.000,0,4.92339,0.425638
2.291,0.1,4.92339,0.425668
5.071,0.2,4.92371,0.425609
7.884,0.30000000000000004,4.92403,0.425683
10.663,0.4,4.92387,0.425461
13.460,0.5,4.92355,0.425712
16.272,0.6,4.92371,0.425816
19.068,0.7,4.92403,0.425712
21.880,0.7999999999999999,4.92355,0.425771
24.659,0.8999999999999999,4.92403,0.425801
27.456,0.9999999999999999,4.92355,0.425816
30.235,1.0999999999999999,4.92371,0.425697
33.048,1.2,4.92403,0.425697
35.844,1.3,4.92403,0.425609
38.640,1.4000000000000001,4.92339,0.425564
41.453,1.5000000000000002,4.92339,0.425727
44.263,1.6000000000000003,4.92403,0.425712
47.059,1.7000000000000004,4.92387,0.42583
49.856,1.8000000000000005,4.92387,0.425978
52.667,1.9000000000000006,4.92355,0.425919
55.478,2.0000000000000004,4.92387,0.425889
58.275,2.1000000000000005,4.92387,0.425934
61.055,2.2000000000000006,4.92371,0.425934
63.851,2.3000000000000007,4.92339,0.425875
66.634,2.400000000000001,4.92419,0.425816
69.443,2.500000000000001,4.92387,0.425742
72.238,2.600000000000001,4.92371,0.425786
75.034,2.700000000000001,4.92355,0.425786
77.830,2.800000000000001,4.92387,0.425978
80.626,2.9000000000000012,4.92371,0.425771
83.423,3.0000000000000013,4.92355,0.425786
86.202,3.1000000000000014,4.92419,0.425623
89.013,3.2000000000000015,4.92355,0.425742
91.825,3.3000000000000016,4.92355,0.425816
94.606,3.4000000000000017,4.92371,0.425816
97.386,3.5000000000000018,4.92403,0.42583
100.181,3.600000000000002,4.92355,0.425875
102.962,3.700000000000002,4.92355,0.425801
105.741,3.800000000000002,4.92339,0.425816
108.555,3.900000000000002,4.92387,0.425875
111.381,4.000000000000002,4.92419,0.42586
114.177,4.100000000000001,4.92403,0.425875
116.972,4.200000000000001,4.92371,0.426052
119.785,4.300000000000001,4.92371,0.425786
122.596,4.4,4.92323,0.425816
125.377,4.5,4.92371,0.425993
128.204,4.6,4.92339,0.426052
131.000,4.699999999999999,4.92387,0.426096
133.780,4.799999999999999,4.92419,0.425963
136.577,4.899999999999999,4.92355,0.426126
139.356,4.999999999999998,4.92403,0.426008
142.168,5.099999999999998,4.92435,0.425949
144.975,5.1999999999999975,4.92403,0.426126
147.760,5.299999999999997,4.92419,0.425993
150.540,5.399999999999997,4.92355,0.426096
153.336,5.4999999999999964,4.92355,0.42617
156.131,5.599999999999996,4.92371,0.426288
158.928,5.699999999999996,4.92371,0.426392
161.724,5.799999999999995,4.92387,0.426318
164.503,5.899999999999995,4.92387,0.426155
167.283,5.999999999999995,4.92387,0.4262
170.063,6.099999999999994,4.92403,0.426229
172.842,6.199999999999994,4.92403,0.426052
175.622,6.299999999999994,4.92371,0.426111
178.402,6.399999999999993,4.92371,0.425978
181.197,6.499999999999993,4.92387,0.426407
184.009,6.5999999999999925,4.92403,0.426466
186.789,6.699999999999992,4.92371,0.426761
189.585,6.799999999999992,4.92403,0.426658
192.413,6.8999999999999915,4.92387,0.426835
195.193,6.999999999999991,4.92419,0.427205
197.991,7.099999999999991,4.92355,0.427264
200.785,7.19999999999999,4.92371,0.427648
203.597,7.29999999999999,4.92355,0.427677
206.425,7.39999999999999,4.92451,0.428017
209.220,7.499999999999989,4.92419,0.428653
212.000,7.599999999999989,4.92371,0.429377
214.781,7.699999999999989,4.92387,0.42979
217.576,7.799999999999988,4.92371,0.429835
220.374,7.899999999999988,4.92419,0.429938
223.168,7.999999999999988,4.92387,0.42979
225.980,8.099999999999987,4.92371,0.429835
228.776,8.199999999999987,4.92339,0.429909
231.556,8.299999999999986,4.92387,0.430056
234.368,8.399999999999986,4.92371,0.43016
237.180,8.499999999999986,4.92419,0.430101
239.991,8.599999999999985,4.92323,0.430012
242.819,8.699999999999985,4.92371,0.429938
245.631,8.799999999999985,4.92355,0.429584
248.460,8.899999999999984,4.92355,0.429332
251.271,8.999999999999984,4.92371,0.428874
254.051,9.099999999999984,4.92339,0.428431
256.847,9.199999999999983,4.92387,0.42784
259.643,9.299999999999983,4.92323,0.427677
262.439,9.399999999999983,4.92387,0.427471
265.218,9.499999999999982,4.92371,0.427116
268.062,9.599999999999982,4.92419,0.427012
270.843,9.699999999999982,4.92403,0.426806
273.654,9.799999999999981,4.92371,0.426569
276.433,9.89999999999998,4.92403,0.426525
279.230,9.99999999999998,4.92387,0.426584
282.041,10.09999999999998,4.92387,0.426348
284.837,10.19999999999998,4.92355,0.426377
287.665,10.29999999999998,4.92371,0.426229
290.477,10.399999999999979,4.92403,0.426185
293.289,10.499999999999979,4.92339,0.426229
296.068,10.599999999999978,4.92403,0.426037
298.881,10.699999999999978,4.92307,0.426141
301.708,10.799999999999978,4.92451,0.426096
304.521,10.899999999999977,4.92355,0.426155
307.334,10.999999999999977,4.92387,0.426096
310.144,11.099999999999977,4.92371,0.426022
312.939,11.199999999999976,4.92323,0.426008
315.751,11.299999999999976,4.92387,0.425993
318.563,11.399999999999975,4.92371,0.425875
321.359,11.499999999999975,4.92419,0.425919
324.154,11.599999999999975,4.92355,0.426022
326.966,11.699999999999974,4.92419,0.425919
329.779,11.799999999999974,4.92419,0.425919
332.575,11.899999999999974,4.92419,0.425919
335.385,11.999999999999973,4.92355,0.425993
338.198,12.099999999999973,4.92435,0.425756
340.993,12.199999999999973,4.92403,0.425683
343.774,12.299999999999972,4.92483,0.425786
346.585,12.399999999999972,4.92403,0.425594
349.378,12.499999999999972,4.92419,0.425756
352.177,12.599999999999971,4.92355,0.425742
354.989,12.69999999999997,4.92387,0.425801
357.803,12.79999999999997,4.92403,0.425623
360.597,12.89999999999997,4.92403,0.425609
363.395,12.99999999999997,4.92339,0.425638
366.204,13.09999999999997,4.92355,0.425594
369.001,13.199999999999969,4.92355,0.425609
371.812,13.299999999999969,4.92339,0.425712
374.623,13.399999999999968,4.92339,0.425756
377.420,13.499999999999968,4.92355,0.425771
380.216,13.599999999999968,4.92339,0.425609
383.027,13.699999999999967,4.92371,0.425668
385.807,13.799999999999967,4.92371,0.425786
388.620,13.899999999999967,4.92387,0.425668
391.415,13.999999999999966,4.92339,0.425564
394.230,14.099999999999966,4.92371,0.425579
397.042,14.199999999999966,4.92371,0.425638
399.836,14.299999999999965,4.92307,0.425742
402.630,14.399999999999965,4.92419,0.425742
405.442,14.499999999999964,4.92387,0.425742
408.239,14.599999999999964,4.92387,0.425845
411.060,14.699999999999964,4.92467,0.425712
413.879,14.799999999999963,4.92371,0.425801
416.659,14.899999999999963,4.92371,0.425594
419.437,14.999999999999963,4.92403,0.425594
422.250,15.099999999999962,4.92403,0.425668
425.031,15.199999999999962,4.92355,0.425742
427.857,15.299999999999962,4.92355,0.425904
430.653,15.399999999999961,4.92371,0.425801
433.465,15.499999999999961,4.92371,0.425786
436.246,15.59999999999996,4.92387,0.425623
439.041,15.69999999999996,4.92387,0.425653
441.838,15.79999999999996,4.92371,0.425668
444.629,15.89999999999996,4.92339,0.425564
447.445,15.99999999999996,4.92403,0.425609
450.273,16.09999999999996,4.92419,0.425535
453.069,16.19999999999996,4.92419,0.425535
455.881,16.29999999999996,4.92355,0.425712
458.693,16.399999999999963,4.92371,0.425771
461.501,16.499999999999964,4.92403,0.425816
464.300,16.599999999999966,4.92339,0.425668
467.097,16.699999999999967,4.92371,0.425771
469.891,16.79999999999997,4.92371,0.425712
472.705,16.89999999999997,4.92435,0.425801
475.515,16.99999999999997,4.92371,0.42583
478.296,17.099999999999973,4.92387,0.425786
481.107,17.199999999999974,4.92387,0.425949
483.919,17.299999999999976,4.92435,0.425742
486.716,17.399999999999977,4.92387,0.425668
489.495,17.49999999999998,4.92387,0.425934
492.275,17.59999999999998,4.92355,0.425889
495.087,17.69999999999998,4.92387,0.425742
497.883,17.799999999999983,4.92371,0.425801
500.694,17.899999999999984,4.92355,0.42586
503.507,17.999999999999986,4.92371,0.425786
506.286,18.099999999999987,4.92403,0.42583
509.081,18.19999999999999,4.92355,0.425889
511.879,18.29999999999999,4.92387,0.425801
514.675,18.39999999999999,4.92387,0.425889
517.470,18.499999999999993,4.92451,0.425816
520.297,18.599999999999994,4.92355,0.42586
523.111,18.699999999999996,4.92403,0.425949
525.921,18.799999999999997,4.92387,0.425963
528.717,18.9,4.92403,0.425875
531.497,19.0,4.92371,0.425934
534.308,19.1,4.92419,0.425963
537.104,19.200000000000003,4.92419,0.426111
539.886,19.300000000000004,4.92435,0.425845
542.680,19.400000000000006,4.92403,0.425889
545.508,19.500000000000007,4.92419,0.425889
548.304,19.60000000000001,4.92403,0.425816
551.084,19.70000000000001,4.92371,0.425993
553.881,19.80000000000001,4.92435,0.42617
556.677,19.900000000000013,4.92339,0.426022
559.664,20.000000000000014,4.92355,0.425889
562.459,20.100000000000016,4.92403,0.426037
565.239,20.200000000000017,4.92371,0.425949
568.019,20.30000000000002,4.92403,0.425963
570.831,20.40000000000002,4.92387,0.425963
573.643,20.50000000000002,4.92307,0.426037
576.424,20.600000000000023,4.92371,0.426141
579.235,20.700000000000024,4.92387,0.426082
582.031,20.800000000000026,4.92355,0.426082
584.826,20.900000000000027,4.92419,0.426067
587.607,21.00000000000003,4.92371,0.426052
590.386,21.10000000000003,4.92371,0.426126
593.166,21.20000000000003,4.92355,0.426096
595.978,21.300000000000033,4.92339,0.426096
598.870,21.400000000000034,4.92419,0.42617
601.682,21.500000000000036,4.92403,0.425963
604.494,21.600000000000037,4.92419,0.426082
607.290,21.70000000000004,4.92371,0.426111
610.086,21.80000000000004,4.92387,0.426082
612.897,21.90000000000004,4.92387,0.426288
615.692,22.000000000000043,4.92387,0.426259
618.473,22.100000000000044,4.92355,0.426067
621.300,22.200000000000045,4.92355,0.426037
624.097,22.300000000000047,4.92339,0.426082
626.908,22.40000000000005,4.92371,0.425993
629.721,22.50000000000005,4.92451,0.426022
632.500,22.60000000000005,4.92371,0.426037
635.280,22.700000000000053,4.92403,0.426082
638.075,22.800000000000054,4.92355,0.4262
640.890,22.900000000000055,4.92371,0.426096
643.684,23.000000000000057,4.92387,0.42617
646.495,23.10000000000006,4.92387,0.426259
649.307,23.20000000000006,4.92371,0.426022
652.104,23.30000000000006,4.92435,0.426082
654.899,23.400000000000063,4.92355,0.426067
657.711,23.500000000000064,4.92419,0.426052
660.507,23.600000000000065,4.92419,0.426141
663.287,23.700000000000067,4.92483,0.426067
666.084,23.800000000000068,4.92403,0.426096
668.863,23.90000000000007,4.92435,0.4262
671.659,24.00000000000007,4.92435,0.426141
674.454,24.100000000000072,4.92355,0.426229
677.234,24.200000000000074,4.92514,0.426229
680.030,24.300000000000075,4.92387,0.426303
682.826,24.400000000000077,4.92403,0.426037
685.637,24.500000000000078,4.92339,0.426067
688.433,24.60000000000008,4.92355,0.42617
691.230,24.70000000000008,4.92387,0.426215
694.026,24.800000000000082,4.92403,0.426155
696.822,24.900000000000084,4.92323,0.426141
