Time [s],Position [mm],Power1 [W],Power2 [W]
0.000,0,4.92052,0.426983
2.274,0.1,4.92005,0.427027
5.094,0.2,4.92036,0.427057
7.898,0.30000000000000004,4.92005,0.427072
10.678,0.4,4.91925,0.427042
13.490,0.5,4.92036,0.427116
16.270,0.6,4.91957,0.426968
19.066,0.7,4.91973,0.42716
21.877,0.7999999999999999,4.91973,0.42719
24.673,0.8999999999999999,4.92036,0.427249
27.469,0.9999999999999999,4.91973,0.427264
30.266,1.0999999999999999,4.92036,0.427308
33.063,1.2,4.91989,0.427293
35.874,1.3,4.92021,0.427293
38.685,1.4000000000000001,4.92021,0.427249
41.498,1.5000000000000002,4.92021,0.427101
44.278,1.6000000000000003,4.91957,0.427205
47.089,1.7000000000000004,4.91989,0.427175
49.869,1.8000000000000005,4.91957,0.427175
52.648,1.9000000000000006,4.92021,0.427308
55.445,2.0000000000000004,4.92021,0.427308
58.257,2.1000000000000005,4.92052,0.427278
61.068,2.2000000000000006,4.92021,0.427012
63.927,2.3000000000000007,4.92021,0.427205
66.708,2.400000000000001,4.92021,0.427264
69.519,2.500000000000001,4.91941,0.427249
72.300,2.600000000000001,4.91957,0.427175
75.095,2.700000000000001,4.91957,0.427278
77.907,2.800000000000001,4.92068,0.427323
80.688,2.9000000000000012,4.91957,0.427293
83.499,3.0000000000000013,4.91925,0.42719
86.279,3.1000000000000014,4.91973,0.427219
89.091,3.2000000000000015,4.92036,0.427234
91.871,3.3000000000000016,4.91973,0.427086
94.677,3.4000000000000017,4.92005,0.427205
97.462,3.5000000000000018,4.92005,0.427205
100.258,3.600000000000002,4.91973,0.427293
103.071,3.700000000000002,4.91973,0.427367
105.851,3.800000000000002,4.92084,0.42753
108.665,3.900000000000002,4.92021,0.427382
111.459,4.000000000000002,4.92005,0.427367
114.254,4.100000000000001,4.92036,0.427456
117.054,4.200000000000001,4.91989,0.427352
119.832,4.300000000000001,4.92005,0.427411
122.627,4.4,4.91989,0.427352
125.456,4.5,4.92052,0.427367
128.266,4.6,4.91973,0.427382
131.062,4.699999999999999,4.91973,0.427589
133.860,4.799999999999999,4.91989,0.427382
136.675,4.899999999999999,4.92021,0.427352
139.451,4.999999999999998,4.92036,0.427367
142.231,5.099999999999998,4.91957,0.427426
145.026,5.1999999999999975,4.91973,0.427471
147.839,5.299999999999997,4.92021,0.427426
150.650,5.399999999999997,4.91925,0.427441
153.431,5.4999999999999964,4.91989,0.427471
156.227,5.599999999999996,4.91973,0.427559
159.007,5.699999999999996,4.92005,0.427781
161.819,5.799999999999995,4.91989,0.427781
164.631,5.899999999999995,4.92021,0.4275
167.411,5.999999999999995,4.91957,0.4275
170.206,6.099999999999994,4.91957,0.427323
173.019,6.199999999999994,4.91941,0.427397
175.798,6.299999999999994,4.91957,0.427471
178.612,6.399999999999993,4.91989,0.427677
181.422,6.499999999999993,4.92005,0.427677
184.203,6.5999999999999925,4.91909,0.427825
187.014,6.699999999999992,4.92005,0.427914
189.826,6.799999999999992,4.91925,0.428091
192.607,6.8999999999999915,4.92005,0.428165
195.418,6.999999999999991,4.92021,0.428549
198.198,7.099999999999991,4.91973,0.429037
201.021,7.19999999999999,4.91941,0.428904
203.805,7.29999999999999,4.92005,0.428978
206.589,7.39999999999999,4.91973,0.429185
209.381,7.499999999999989,4.92036,0.429731
212.162,7.599999999999989,4.91989,0.430559
214.956,7.699999999999989,4.91989,0.431135
217.738,7.799999999999988,4.92036,0.431253
220.549,7.899999999999988,4.92036,0.431268
223.360,7.999999999999988,4.92036,0.43112
226.157,8.099999999999987,4.91989,0.431238
228.968,8.199999999999987,4.92036,0.431416
231.764,8.299999999999986,4.91957,0.431386
234.576,8.399999999999986,4.92052,0.431342
237.389,8.499999999999986,4.91989,0.431401
240.200,8.599999999999985,4.92052,0.431283
242.980,8.699999999999985,4.91973,0.431283
245.786,8.799999999999985,4.91925,0.430943
248.604,8.899999999999984,4.91957,0.430573
251.416,8.999999999999984,4.91909,0.43016
254.228,9.099999999999984,4.92005,0.429584
257.040,9.199999999999983,4.92005,0.429421
259.855,9.299999999999983,4.92084,0.428919
262.647,9.399999999999983,4.92052,0.4288
265.460,9.499999999999982,4.91989,0.428638
268.239,9.599999999999982,4.92021,0.428298
271.035,9.699999999999982,4.91989,0.428328
273.832,9.799999999999981,4.91925,0.428209
276.611,9.89999999999998,4.91941,0.427988
279.408,9.99999999999998,4.91957,0.428017
282.203,10.09999999999998,4.92036,0.427914
285.015,10.19999999999998,4.91989,0.427692
287.811,10.29999999999998,4.92005,0.427618
290.623,10.399999999999979,4.92005,0.427485
293.419,10.499999999999979,4.92052,0.4275
296.215,10.599999999999978,4.92021,0.4275
299.026,10.699999999999978,4.92005,0.427515
301.838,10.799999999999978,4.92021,0.427382
304.618,10.899999999999977,4.92005,0.427278
307.416,10.999999999999977,4.91925,0.427308
310.228,11.099999999999977,4.91989,0.427382
313.023,11.199999999999976,4.92036,0.427337
315.834,11.299999999999976,4.91973,0.427456
318.647,11.399999999999975,4.92021,0.427352
321.443,11.499999999999975,4.92021,0.427544
324.254,11.599999999999975,4.92021,0.427337
327.035,11.699999999999974,4.91989,0.427456
329.830,11.799999999999974,4.91957,0.427278
332.627,11.899999999999974,4.92005,0.427219
335.407,11.999999999999973,4.91989,0.427234
338.218,12.099999999999973,4.92036,0.427219
341.000,12.199999999999973,4.92036,0.427131
343.794,12.299999999999972,4.91973,0.42719
346.574,12.399999999999972,4.92052,0.427234
349.370,12.499999999999972,4.92005,0.427234
352.166,12.599999999999971,4.91989,0.427145
354.987,12.69999999999997,4.91973,0.42719
357.806,12.79999999999997,4.91957,0.42716
360.602,12.89999999999997,4.91989,0.426998
363.415,12.99999999999997,4.91989,0.427042
366.210,13.09999999999997,4.91989,0.426983
369.006,13.199999999999969,4.92052,0.426953
371.818,13.299999999999969,4.92005,0.426939
374.632,13.399999999999968,4.91973,0.426879
377.426,13.499999999999968,4.92068,0.426998
380.224,13.599999999999968,4.91989,0.426983
383.035,13.699999999999967,4.91973,0.426924
385.814,13.799999999999967,4.91957,0.427027
388.641,13.899999999999967,4.92005,0.427027
391.421,13.999999999999966,4.91989,0.427042
394.217,14.099999999999966,4.91973,0.426998
396.997,14.199999999999966,4.91989,0.426953
399.809,14.299999999999965,4.91973,0.427116
402.621,14.399999999999965,4.91989,0.427012
405.417,14.499999999999964,4.91989,0.427131
408.198,14.599999999999964,4.92021,0.427086
410.994,14.699999999999964,4.91989,0.427012
413.789,14.799999999999963,4.92005,0.427175
416.601,14.899999999999963,4.91973,0.426939
419.381,14.999999999999963,4.92036,0.426806
422.177,15.099999999999962,4.91973,0.426746
424.956,15.199999999999962,4.92052,0.426953
427.768,15.299999999999962,4.92021,0.426879
430.563,15.399999999999961,4.92052,0.426953
433.376,15.499999999999961,4.92005,0.426924
436.157,15.59999999999996,4.91989,0.426835
438.952,15.69999999999996,4.92021,0.42685
441.748,15.79999999999996,4.92021,0.427042
444.559,15.89999999999996,4.92052,0.427086
447.357,15.99999999999996,4.92005,0.42719
450.151,16.09999999999996,4.92005,0.426968
452.968,16.19999999999996,4.92021,0.427042
455.775,16.29999999999996,4.91973,0.42719
458.555,16.399999999999963,4.92021,0.427131
461.368,16.499999999999964,4.92005,0.426983
464.163,16.599999999999966,4.91989,0.426924
466.975,16.699999999999967,4.91989,0.426953
469.787,16.79999999999997,4.92036,0.426953
472.599,16.89999999999997,4.91973,0.426968
475.394,16.99999999999997,4.91989,0.427072
478.190,17.099999999999973,4.91909,0.427234
480.987,17.199999999999974,4.91989,0.427012
483.798,17.299999999999976,4.91989,0.426968
486.578,17.399999999999977,4.91973,0.427072
489.374,17.49999999999998,4.92005,0.427012
492.154,17.59999999999998,4.92005,0.42719
494.950,17.69999999999998,4.92021,0.42719
497.778,17.799999999999983,4.91989,0.427205
500.559,17.899999999999984,4.91989,0.427145
503.354,17.999999999999986,4.91973,0.426998
506.135,18.099999999999987,4.92005,0.426924
508.946,18.19999999999999,4.92036,0.427249
511.726,18.29999999999999,4.91989,0.427219
514.538,18.39999999999999,4.92005,0.427219
517.318,18.499999999999993,4.91989,0.427145
520.098,18.599999999999994,4.91957,0.427027
522.937,18.699999999999996,4.91973,0.427145
525.738,18.799999999999997,4.92005,0.427012
528.534,18.9,4.91973,0.427175
531.362,19.0,4.92021,0.427234
534.177,19.1,4.91989,0.427205
536.985,19.200000000000003,4.92021,0.427101
539.765,19.300000000000004,4.91941,0.427264
542.577,19.400000000000006,4.92052,0.42719
545.390,19.500000000000007,4.91957,0.427205
548.185,19.60000000000001,4.91989,0.427175
550.980,19.70000000000001,4.92005,0.427278
553.777,19.80000000000001,4.91989,0.427205
556.573,19.900000000000013,4.91973,0.427293
559.369,20.000000000000014,4.92005,0.427175
562.166,20.100000000000016,4.92068,0.427205
564.976,20.200000000000017,4.92021,0.427278
567.788,20.30000000000002,4.92005,0.427175
570.601,20.40000000000002,4.91957,0.427323
573.380,20.50000000000002,4.91957,0.427131
576.176,20.600000000000023,4.92052,0.427219
578.987,20.700000000000024,4.92021,0.427101
581.816,20.800000000000026,4.92052,0.42716
584.627,20.900000000000027,4.92005,0.427323
587.407,21.00000000000003,4.92021,0.427264
590.203,21.10000000000003,4.91957,0.427293
592.998,21.20000000000003,4.91989,0.427337
595.779,21.300000000000033,4.91989,0.427367
598.559,21.400000000000034,4.92021,0.427456
601.339,21.500000000000036,4.92052,0.427382
604.137,21.600000000000037,4.92068,0.427323
606.947,21.70000000000004,4.92005,0.427323
609.743,21.80000000000004,4.91989,0.427293
612.522,21.90000000000004,4.91909,0.427323
615.319,22.000000000000043,4.91989,0.42719
618.131,22.100000000000044,4.92052,0.427308
620.942,22.200000000000045,4.91973,0.427337
623.738,22.300000000000047,4.91973,0.427441
626.534,22.40000000000005,4.92021,0.427559
629.329,22.50000000000005,4.91941,0.427352
632.141,22.60000000000005,4.92021,0.427411
634.938,22.700000000000053,4.91957,0.427411
637.734,22.800000000000054,4.92068,0.427367
640.514,22.900000000000055,4.92021,0.427441
643.310,23.000000000000057,4.92036,0.427441
646.107,23.10000000000006,4.921,0.427515
648.902,23.20000000000006,4.91989,0.427382
651.722,23.30000000000006,4.91989,0.427278
654.525,23.400000000000063,4.91973,0.427367
657.322,23.500000000000064,4.91989,0.427264
660.133,23.600000000000065,4.91957,0.427456
662.929,23.700000000000067,4.91925,0.427441
665.741,23.800000000000068,4.91989,0.427382
668.584,23.90000000000007,4.91973,0.427515
671.381,24.00000000000007,4.92052,0.427471
674.160,24.100000000000072,4.92052,0.427278
676.972,24.200000000000074,4.91989,0.427352
679.753,24.300000000000075,4.92005,0.427293
682.548,24.400000000000077,4.92021,0.427352
685.344,24.500000000000078,4.91941,0.427441
688.157,24.60000000000008,4.92021,0.4275
690.952,24.70000000000008,4.92021,0.427441
693.764,24.800000000000082,4.92005,0.427411
696.560,24.900000000000084,4.92052,0.427559
