Time [s],Position [mm],Power1 [W],Power2 [W]
0.000,0,0.00367539,0.429554
2.277,0.1,0.00368177,0.429554
5.091,0.2,0.00366742,0.429554
7.870,0.30000000000000004,0.0036687,0.429584
10.666,0.4,0.00368113,0.429554
13.463,0.5,0.00367093,0.429598
16.244,0.6,0.00366838,0.429584
19.041,0.7,0.00367189,0.429524
21.852,0.7999999999999999,0.00367316,0.429524
24.649,0.8999999999999999,0.00366838,0.429377
27.462,0.9999999999999999,0.00367476,0.429451
30.242,1.0999999999999999,0.00367508,0.42948
33.037,1.2,0.00366105,0.42951
35.834,1.3,0.00366679,0.429598
38.614,1.4000000000000001,0.00366296,0.429569
41.395,1.5000000000000002,0.00366997,0.429554
44.193,1.6000000000000003,0.00366615,0.429584
46.971,1.7000000000000004,0.00367826,0.429554
49.800,1.8000000000000005,0.00367794,0.429569
52.595,1.9000000000000006,0.00368177,0.429524
55.408,2.0000000000000004,0.00368049,0.42951
58.204,2.1000000000000005,0.00368177,0.429598
60.987,2.2000000000000006,0.00369197,0.429687
63.780,2.3000000000000007,0.00367476,0.429702
66.592,2.400000000000001,0.00367093,0.429672
69.405,2.500000000000001,0.00367029,0.429628
72.217,2.600000000000001,0.00366838,0.429628
75.030,2.700000000000001,0.00367284,0.429687
77.841,2.800000000000001,0.00366679,0.429687
80.638,2.9000000000000012,0.00367444,0.429613
83.449,3.0000000000000013,0.00366742,0.429702
86.248,3.1000000000000014,0.0036671,0.429598
89.061,3.2000000000000015,0.00366679,0.429628
91.854,3.3000000000000016,0.00367826,0.429657
94.651,3.4000000000000017,0.00367029,0.429687
97.431,3.5000000000000018,0.00367093,0.429687
100.228,3.600000000000002,0.00367858,0.429613
103.055,3.700000000000002,0.00367189,0.429702
105.851,3.800000000000002,0.00367826,0.429687
108.663,3.900000000000002,0.00366328,0.429761
111.459,4.000000000000002,0.00366838,0.429746
114.319,4.100000000000001,0.00366551,0.429643
117.100,4.200000000000001,0.00366583,0.42979
119.913,4.300000000000001,0.00367189,0.429598
122.708,4.4,0.00367252,0.429613
125.489,4.5,0.003662,0.429687
128.301,4.6,0.00367093,0.429731
131.082,4.699999999999999,0.00366232,0.429776
133.893,4.799999999999999,0.00366551,0.429849
136.706,4.899999999999999,0.00366456,0.429805
139.502,4.999999999999998,0.00366997,0.429776
142.299,5.099999999999998,0.00366774,0.429761
145.110,5.1999999999999975,0.00365372,0.429717
147.907,5.299999999999997,0.00366296,0.429746
150.703,5.399999999999997,0.00366487,0.429717
153.499,5.4999999999999964,0.00367029,0.429805
156.311,5.599999999999996,0.0036687,0.429923
159.123,5.699999999999996,0.00368623,0.430219
161.942,5.799999999999995,0.00368528,0.430115
164.763,5.899999999999995,0.00369452,0.430042
167.544,5.999999999999995,0.00368655,0.42979
170.323,6.099999999999994,0.00368145,0.429879
173.135,6.199999999999994,0.00368623,0.429909
175.916,6.299999999999994,0.00365276,0.429938
178.728,6.399999999999993,0.00368209,0.429968
181.525,6.499999999999993,0.0036789,0.430027
184.320,6.5999999999999925,0.00366551,0.430101
187.119,6.699999999999992,0.00366742,0.430322
189.913,6.799999999999992,0.00366806,0.430367
192.727,6.8999999999999915,0.00366774,0.430573
195.552,6.999999999999991,0.00367763,0.43084
198.366,7.099999999999991,0.00370026,0.431209
201.177,7.19999999999999,0.00370855,0.431238
203.973,7.29999999999999,0.00371429,0.431386
206.770,7.39999999999999,0.003684,0.431549
209.550,7.499999999999989,0.00366997,0.432169
212.331,7.599999999999989,0.00366551,0.432864
215.143,7.699999999999989,0.00367125,0.433411
217.938,7.799999999999988,0.00367029,0.433603
220.735,7.899999999999988,0.00366774,0.433529
223.531,7.999999999999988,0.00366551,0.433337
226.312,8.099999999999987,0.00367986,0.433351
229.092,8.199999999999987,0.00367252,0.433425
231.888,8.299999999999986,0.00367571,0.433544
234.699,8.399999999999986,0.00366774,0.433425
237.481,8.499999999999986,0.00367093,0.433484
240.260,8.599999999999985,0.00365754,0.433455
243.073,8.699999999999985,0.00367763,0.433425
245.884,8.799999999999985,0.0036671,0.433263
248.719,8.899999999999984,0.00366328,0.432908
251.493,8.999999999999984,0.00367252,0.43245
254.290,9.099999999999984,0.00367093,0.432081
257.070,9.199999999999983,0.00363459,0.431741
259.850,9.299999999999983,0.00364925,0.431445
262.661,9.399999999999983,0.00366105,0.431165
265.458,9.499999999999982,0.00365499,0.431002
268.239,9.599999999999982,0.00365563,0.43081
271.019,9.699999999999982,0.00365531,0.430692
273.894,9.799999999999981,0.00365659,0.430485
276.707,9.89999999999998,0.00365372,0.430367
279.519,9.99999999999998,0.00366105,0.430293
282.315,10.09999999999998,0.00365563,0.430204
285.128,10.19999999999998,0.00365563,0.430027
287.908,10.29999999999998,0.00366137,0.430027
290.688,10.399999999999979,0.00366806,0.429982
293.515,10.499999999999979,0.00366806,0.42979
296.312,10.599999999999978,0.00365722,0.429894
299.094,10.699999999999978,0.00365499,0.429938
301.904,10.799999999999978,0.00366073,0.42982
304.685,10.899999999999977,0.00366296,0.429864
307.465,10.999999999999977,0.00365722,0.429761
310.293,11.099999999999977,0.00366264,0.429805
313.090,11.199999999999976,0.00365754,0.429776
315.913,11.299999999999976,0.00366615,0.429702
318.731,11.399999999999975,0.003684,0.429613
321.542,11.499999999999975,0.00370058,0.429657
324.355,11.599999999999975,0.00364128,0.429613
327.167,11.699999999999974,0.0036687,0.429672
329.969,11.799999999999974,0.00364957,0.429717
332.776,11.899999999999974,0.00365467,0.42948
335.572,11.999999999999973,0.00366264,0.429539
338.368,12.099999999999973,0.00366009,0.429554
341.149,12.199999999999973,0.00365308,0.42948
343.929,12.299999999999972,0.00366105,0.42951
346.725,12.399999999999972,0.00365882,0.42951
349.505,12.499999999999972,0.00365435,0.429451
352.285,12.599999999999971,0.00365945,0.429465
355.097,12.69999999999997,0.00365786,0.429391
357.894,12.79999999999997,0.00365244,0.429391
360.710,12.89999999999997,0.00365659,0.429451
363.502,12.99999999999997,0.0036636,0.429421
366.313,13.09999999999997,0.00366519,0.429377
369.094,13.199999999999969,0.00366073,0.429436
371.874,13.299999999999969,0.00366424,0.429362
374.670,13.399999999999968,0.00365276,0.429391
377.451,13.499999999999968,0.00366296,0.429436
380.232,13.599999999999968,0.00365914,0.429318
383.028,13.699999999999967,0.00365085,0.429258
385.864,13.799999999999967,0.00365563,0.429258
388.684,13.899999999999967,0.00368559,0.429214
391.480,13.999999999999966,0.00367699,0.429362
394.309,14.099999999999966,0.0036636,0.429244
397.088,14.199999999999966,0.00366551,0.429244
399.901,14.299999999999965,0.0036671,0.429406
402.713,14.399999999999965,0.00366424,0.429436
405.493,14.499999999999964,0.0036585,0.429451
408.274,14.599999999999964,0.00366424,0.429539
411.086,14.699999999999964,0.00366615,0.429465
413.945,14.799999999999963,0.00365914,0.429362
416.725,14.899999999999963,0.00365818,0.429347
419.506,14.999999999999963,0.00366487,0.429362
422.286,15.099999999999962,0.0036585,0.429406
425.066,15.199999999999962,0.00366679,0.429406
427.866,15.299999999999962,0.00366838,0.429391
430.642,15.399999999999961,0.00367794,0.42948
433.439,15.499999999999961,0.00366679,0.429451
436.262,15.59999999999996,0.00367476,0.42948
439.064,15.69999999999996,0.00366647,0.429495
441.859,15.79999999999996,0.00365276,0.429539
444.656,15.89999999999996,0.003662,0.429495
447.453,15.99999999999996,0.00366456,0.429421
450.232,16.09999999999996,0.00366041,0.42948
453.044,16.19999999999996,0.0036671,0.429524
455.825,16.29999999999996,0.00366424,0.429554
458.636,16.399999999999963,0.00366009,0.429584
461.432,16.499999999999964,0.00365308,0.429613
464.229,16.599999999999966,0.00367029,0.429598
467.057,16.699999999999967,0.00366806,0.429672
469.852,16.79999999999997,0.00365914,0.429643
472.633,16.89999999999997,0.0036671,0.429598
475.445,16.99999999999997,0.00366934,0.429717
478.257,17.099999999999973,0.00365786,0.429598
481.057,17.199999999999974,0.00365244,0.429539
483.833,17.299999999999976,0.0036569,0.429465
486.614,17.399999999999977,0.00365435,0.429451
489.426,17.49999999999998,0.00364989,0.429436
492.206,17.59999999999998,0.00366647,0.42948
495.003,17.69999999999998,0.00367763,0.429524
497.799,17.799999999999983,0.00367348,0.429554
500.596,17.899999999999984,0.00365563,0.429776
503.391,17.999999999999986,0.00388356,0.429761
506.187,18.099999999999987,0.00369388,0.42948
508.999,18.19999999999999,0.00366838,0.429687
511.781,18.29999999999999,0.00369229,0.429776
514.576,18.39999999999999,0.00366997,0.429584
517.388,18.499999999999993,0.00367252,0.429613
520.169,18.599999999999994,0.00365499,0.429554
523.061,18.699999999999996,0.00365659,0.429643
525.840,18.799999999999997,0.00367667,0.429554
528.621,18.9,0.00372831,0.429643
531.401,19.0,0.00367763,0.429687
534.198,19.1,0.00367763,0.42979
536.995,19.200000000000003,0.00366551,0.429761
539.774,19.300000000000004,0.00366934,0.429731
542.555,19.400000000000006,0.00366806,0.429717
545.351,19.500000000000007,0.00367539,0.429672
548.147,19.60000000000001,0.00366934,0.429761
550.960,19.70000000000001,0.00367061,0.429657
553.739,19.80000000000001,0.00367731,0.429687
556.520,19.900000000000013,0.00367316,0.429687
559.299,20.000000000000014,0.00367189,0.429687
562.080,20.100000000000016,0.00367444,0.429687
564.859,20.200000000000017,0.00366519,0.429717
567.641,20.30000000000002,0.00367125,0.429776
570.469,20.40000000000002,0.00366137,0.429746
573.265,20.50000000000002,0.00367029,0.429894
576.077,20.600000000000023,0.0036738,0.429879
578.858,20.700000000000024,0.00366456,0.429776
581.657,20.800000000000026,0.00367221,0.429761
584.449,20.900000000000027,0.00367157,0.429761
587.261,21.00000000000003,0.0036687,0.429746
590.058,21.10000000000003,0.00366296,0.429598
592.839,21.20000000000003,0.00366456,0.42982
595.635,21.300000000000033,0.00366647,0.429761
598.479,21.400000000000034,0.0036585,0.429613
601.274,21.500000000000036,0.00366806,0.429628
604.087,21.600000000000037,0.00366966,0.429776
606.867,21.70000000000004,0.00367125,0.429835
609.679,21.80000000000004,0.00368305,0.429982
612.495,21.90000000000004,0.00369006,0.429997
615.288,22.000000000000043,0.00365977,0.429938
618.099,22.100000000000044,0.00367316,0.429997
620.895,22.200000000000045,0.00367412,0.429805
623.692,22.300000000000047,0.00367986,0.429879
626.504,22.40000000000005,0.0036585,0.429953
629.301,22.50000000000005,0.00366392,0.430042
632.082,22.60000000000005,0.00369293,0.430056
634.878,22.700000000000053,0.00369707,0.429997
637.689,22.800000000000054,0.00371301,0.430012
640.501,22.900000000000055,0.00381917,0.430293
643.313,23.000000000000057,0.0036738,0.429997
646.130,23.10000000000006,0.00382236,0.429539
648.907,23.20000000000006,0.00369101,0.430042
651.734,23.30000000000006,0.00371811,0.429776
654.563,23.400000000000063,0.00366966,0.42979
657.375,23.500000000000064,0.00367444,0.429643
660.186,23.600000000000065,0.00365977,0.42979
662.967,23.700000000000067,0.00366742,0.429717
665.780,23.800000000000068,0.00367826,0.42982
668.607,23.90000000000007,0.00368081,0.429849
671.421,24.00000000000007,0.00367476,0.429805
674.200,24.100000000000072,0.00368113,0.429938
677.012,24.200000000000074,0.00368177,0.429923
679.808,24.300000000000075,0.00367348,0.429879
682.588,24.400000000000077,0.00367858,0.429849
685.401,24.500000000000078,0.00367794,0.42979
688.213,24.60000000000008,0.00367508,0.42982
691.009,24.70000000000008,0.00367571,0.429879
693.837,24.800000000000082,0.00366647,0.429805
696.633,24.900000000000084,0.00369101,0.429746
