Time [s],Position [mm],Power1 [W],Power2 [W]
0.000,0,4.92387,0.426067
2.298,0.1,4.92419,0.42617
5.078,0.2,4.92403,0.426141
7.874,0.30000000000000004,4.92291,0.426126
10.654,0.4,4.92419,0.426288
13.466,0.5,4.92355,0.426155
16.246,0.6,4.92387,0.426244
19.043,0.7,4.92451,0.426318
21.853,0.7999999999999999,4.92435,0.426288
24.651,0.8999999999999999,4.92387,0.426288
27.477,0.9999999999999999,4.92419,0.426481
30.289,1.0999999999999999,4.92403,0.426466
33.102,1.2,4.92435,0.426318
35.881,1.3,4.92339,0.426392
38.694,1.4000000000000001,4.92451,0.426407
41.491,1.5000000000000002,4.92355,0.426318
44.270,1.6000000000000003,4.92435,0.426348
47.050,1.7000000000000004,4.92387,0.426407
49.847,1.8000000000000005,4.92435,0.426466
52.626,1.9000000000000006,4.92371,0.426392
55.406,2.0000000000000004,4.92403,0.426362
58.217,2.1000000000000005,4.92451,0.426318
61.031,2.2000000000000006,4.92387,0.426288
63.810,2.3000000000000007,4.92403,0.426377
66.622,2.400000000000001,4.92387,0.426259
69.402,2.500000000000001,4.92451,0.426333
72.198,2.600000000000001,4.92371,0.426407
74.995,2.700000000000001,4.92403,0.426466
77.774,2.800000000000001,4.92467,0.426495
80.570,2.9000000000000012,4.92387,0.426599
83.366,3.0000000000000013,4.92435,0.42654
86.178,3.1000000000000014,4.92387,0.426466
88.975,3.2000000000000015,4.92355,0.426673
91.753,3.3000000000000016,4.92387,0.426599
94.550,3.4000000000000017,4.92435,0.42651
97.381,3.5000000000000018,4.92467,0.426466
100.172,3.600000000000002,4.92435,0.426481
102.984,3.700000000000002,4.92387,0.426554
105.765,3.800000000000002,4.92419,0.426451
108.561,3.900000000000002,4.92419,0.426377
111.372,4.000000000000002,4.92419,0.426407
114.169,4.100000000000001,4.92387,0.426554
116.948,4.200000000000001,4.92483,0.426525
119.754,4.300000000000001,4.92371,0.426628
122.572,4.4,4.92419,0.426658
125.400,4.5,4.92371,0.426333
128.195,4.6,4.92387,0.42651
130.990,4.699999999999999,4.92403,0.426451
133.787,4.799999999999999,4.92419,0.426362
136.598,4.899999999999999,4.92451,0.426495
139.380,4.999999999999998,4.92419,0.426554
142.191,5.099999999999998,4.92403,0.426717
144.986,5.1999999999999975,4.92403,0.426599
147.799,5.299999999999997,4.92387,0.42651
150.595,5.399999999999997,4.92419,0.426392
153.407,5.4999999999999964,4.92387,0.42654
156.203,5.599999999999996,4.92419,0.42682
159.062,5.699999999999996,4.92498,0.427042
161.874,5.799999999999995,4.92451,0.427012
164.686,5.899999999999995,4.92371,0.426791
167.482,5.999999999999995,4.92451,0.42682
170.277,6.099999999999994,4.92371,0.426702
173.090,6.199999999999994,4.92435,0.426673
175.870,6.299999999999994,4.92419,0.426806
178.664,6.399999999999993,4.92451,0.426732
181.461,6.499999999999993,4.92403,0.426894
184.272,6.5999999999999925,4.92387,0.427012
187.084,6.699999999999992,4.92371,0.427116
189.959,6.799999999999992,4.92371,0.427352
192.772,6.8999999999999915,4.92355,0.427367
195.551,6.999999999999991,4.92419,0.427825
198.348,7.099999999999991,4.92355,0.428342
201.159,7.19999999999999,4.92387,0.428416
203.955,7.29999999999999,4.92403,0.428534
206.735,7.39999999999999,4.92403,0.428594
209.547,7.499999999999989,4.92451,0.429037
212.360,7.599999999999989,4.92419,0.429835
215.187,7.699999999999989,4.92419,0.430115
217.998,7.799999999999988,4.92451,0.430514
220.794,7.899999999999988,4.92355,0.430618
223.606,7.999999999999988,4.92435,0.430529
226.417,8.099999999999987,4.92387,0.430441
229.213,8.199999999999987,4.92355,0.430633
232.025,8.299999999999986,4.92451,0.430854
234.822,8.399999999999986,4.92435,0.430751
237.649,8.499999999999986,4.92371,0.430825
240.479,8.599999999999985,4.92483,0.43078
243.257,8.699999999999985,4.92435,0.430559
246.037,8.799999999999985,4.92387,0.430056
248.848,8.899999999999984,4.92419,0.429657
251.660,8.999999999999984,4.92451,0.429199
254.456,9.099999999999984,4.92371,0.428786
257.268,9.199999999999983,4.92435,0.42852
260.048,9.299999999999983,4.92355,0.428195
262.846,9.399999999999983,4.92483,0.427884
265.656,9.499999999999982,4.92419,0.427707
268.469,9.599999999999982,4.92403,0.427574
271.252,9.699999999999982,4.92371,0.427441
274.044,9.799999999999981,4.92387,0.427293
276.824,9.89999999999998,4.92355,0.42719
279.626,9.99999999999998,4.92435,0.427042
282.415,10.09999999999998,4.92419,0.426879
285.196,10.19999999999998,4.92403,0.426791
287.996,10.29999999999998,4.92403,0.426879
290.771,10.399999999999979,4.92371,0.426806
293.583,10.499999999999979,4.92371,0.426746
296.410,10.599999999999978,4.92419,0.426732
299.217,10.699999999999978,4.92387,0.426584
302.035,10.799999999999978,4.92403,0.426628
304.846,10.899999999999977,4.92419,0.426628
307.657,10.999999999999977,4.92355,0.426628
310.453,11.099999999999977,4.92371,0.426554
313.235,11.199999999999976,4.92371,0.426481
316.045,11.299999999999976,4.92355,0.426466
318.825,11.399999999999975,4.92403,0.426392
321.653,11.499999999999975,4.92387,0.426481
324.433,11.599999999999975,4.92435,0.426392
327.245,11.699999999999974,4.92403,0.426348
330.056,11.799999999999974,4.92323,0.426377
332.868,11.899999999999974,4.92387,0.426421
335.664,11.999999999999973,4.92403,0.426333
338.476,12.099999999999973,4.92387,0.426333
341.256,12.199999999999973,4.92435,0.426377
344.035,12.299999999999972,4.92435,0.426229
346.847,12.399999999999972,4.92419,0.426215
349.659,12.499999999999972,4.92403,0.426185
352.472,12.599999999999971,4.92371,0.426126
355.299,12.69999999999997,4.92387,0.42617
358.095,12.79999999999997,4.92403,0.426185
360.892,12.89999999999997,4.92387,0.426037
363.686,12.99999999999997,4.92483,0.426288
366.467,13.09999999999997,4.92371,0.426288
369.264,13.199999999999969,4.92451,0.426288
372.058,13.299999999999969,4.92419,0.426155
374.871,13.399999999999968,4.92339,0.426155
377.667,13.499999999999968,4.92355,0.426274
380.479,13.599999999999968,4.92419,0.426318
383.308,13.699999999999967,4.92355,0.426259
386.122,13.799999999999967,4.92371,0.4262
388.914,13.899999999999967,4.92451,0.426259
391.694,13.999999999999966,4.92403,0.42617
394.489,14.099999999999966,4.92451,0.426244
397.286,14.199999999999966,4.92451,0.426185
400.081,14.299999999999965,4.92419,0.426229
402.876,14.399999999999965,4.92435,0.426155
405.688,14.499999999999964,4.92387,0.426185
408.503,14.599999999999964,4.92371,0.426141
411.297,14.699999999999964,4.92451,0.426274
414.108,14.799999999999963,4.92355,0.4262
416.936,14.899999999999963,4.92419,0.426096
419.748,14.999999999999963,4.92371,0.426067
422.549,15.099999999999962,4.92419,0.425993
425.323,15.199999999999962,4.92387,0.425993
428.119,15.299999999999962,4.92387,0.425963
430.962,15.399999999999961,4.92403,0.425978
433.742,15.499999999999961,4.92451,0.426052
436.539,15.59999999999996,4.92371,0.426155
439.350,15.69999999999996,4.92387,0.426215
442.166,15.79999999999996,4.92435,0.426259
444.973,15.89999999999996,4.92419,0.426244
447.791,15.99999999999996,4.92419,0.42617
450.613,16.09999999999996,4.92419,0.426215
453.410,16.19999999999996,4.92419,0.426407
456.206,16.29999999999996,4.92451,0.426451
459.017,16.399999999999963,4.92387,0.426244
461.816,16.499999999999964,4.92467,0.426244
464.625,16.599999999999966,4.92403,0.426407
467.406,16.699999999999967,4.92387,0.426348
470.201,16.79999999999997,4.92451,0.426377
472.997,16.89999999999997,4.92435,0.426274
475.809,16.99999999999997,4.92451,0.426008
478.607,17.099999999999973,4.92435,0.426141
481.386,17.199999999999974,4.92435,0.426244
484.196,17.299999999999976,4.92307,0.426421
486.977,17.399999999999977,4.92451,0.426244
489.756,17.49999999999998,4.92419,0.426303
492.583,17.59999999999998,4.92371,0.4262
495.379,17.69999999999998,4.92387,0.426229
498.176,17.799999999999983,4.92403,0.426303
500.987,17.899999999999984,4.92419,0.426333
503.783,17.999999999999986,4.92451,0.426333
506.597,18.099999999999987,4.92403,0.426274
509.376,18.19999999999999,4.92403,0.426215
512.203,18.29999999999999,4.92355,0.426052
514.984,18.39999999999999,4.92467,0.426362
517.779,18.499999999999993,4.92451,0.426362
520.559,18.599999999999994,4.92435,0.426362
523.354,18.699999999999996,4.92403,0.426244
526.167,18.799999999999997,4.92451,0.426392
528.979,18.9,4.92403,0.426481
531.790,19.0,4.92451,0.426362
534.586,19.1,4.92451,0.426436
537.383,19.200000000000003,4.92387,0.426436
540.177,19.300000000000004,4.92387,0.426407
542.958,19.400000000000006,4.92403,0.426436
545.754,19.500000000000007,4.92419,0.426421
548.550,19.60000000000001,4.92371,0.426569
551.331,19.70000000000001,4.92339,0.426421
554.110,19.80000000000001,4.92371,0.426288
556.921,19.900000000000013,4.92451,0.426569
559.734,20.000000000000014,4.92419,0.426613
562.529,20.100000000000016,4.92403,0.426481
565.309,20.200000000000017,4.92435,0.426495
568.123,20.30000000000002,4.92419,0.4262
570.916,20.40000000000002,4.92371,0.426436
573.712,20.50000000000002,4.92451,0.426392
576.523,20.600000000000023,4.92387,0.426421
579.321,20.700000000000024,4.92387,0.426525
582.116,20.800000000000026,4.92371,0.426495
584.928,20.900000000000027,4.92371,0.426466
587.739,21.00000000000003,4.92403,0.426421
590.535,21.10000000000003,4.92403,0.426525
593.331,21.20000000000003,4.92419,0.426451
596.142,21.300000000000033,4.92419,0.426451
598.938,21.400000000000034,4.92435,0.426421
601.718,21.500000000000036,4.92403,0.426481
604.514,21.600000000000037,4.92323,0.426392
607.294,21.70000000000004,4.92371,0.426392
610.090,21.80000000000004,4.92355,0.426481
612.885,21.90000000000004,4.92467,0.426392
615.665,22.000000000000043,4.92403,0.42651
618.476,22.100000000000044,4.92403,0.426407
621.272,22.200000000000045,4.92387,0.426554
624.068,22.300000000000047,4.92435,0.426554
626.865,22.40000000000005,4.92387,0.426628
629.660,22.50000000000005,4.92371,0.426687
632.472,22.60000000000005,4.92403,0.426481
635.277,22.700000000000053,4.92435,0.426599
638.080,22.800000000000054,4.92451,0.426658
640.875,22.900000000000055,4.92435,0.426643
643.676,23.000000000000057,4.92467,0.426466
646.468,23.10000000000006,4.92371,0.426687
649.249,23.20000000000006,4.92451,0.426584
652.059,23.30000000000006,4.92387,0.426584
654.838,23.400000000000063,4.92451,0.426584
657.650,23.500000000000064,4.92387,0.426613
660.447,23.600000000000065,4.92467,0.426658
663.242,23.700000000000067,4.92387,0.426348
666.054,23.800000000000068,4.92387,0.426658
668.866,23.90000000000007,4.92435,0.426628
671.646,24.00000000000007,4.92403,0.426658
674.442,24.100000000000072,4.92435,0.426806
677.273,24.200000000000074,4.92483,0.426584
680.067,24.300000000000075,4.92403,0.426495
682.878,24.400000000000077,4.92451,0.426481
685.674,24.500000000000078,4.92371,0.426658
688.453,24.60000000000008,4.92483,0.426806
691.282,24.70000000000008,4.92419,0.426613
694.077,24.800000000000082,4.92435,0.426584
696.888,24.900000000000084,4.92403,0.426628
