Time [s],Position [mm],Power [W]
0.003,0,0.418951
2.049,0.04,0.41876
4.607,0.08,0.418712
7.161,0.12,0.418887
9.717,0.16,0.418824
12.273,0.2,0.41876
14.831,0.24000000000000002,0.41884
17.386,0.28,0.418776
19.942,0.32,0.418585
22.498,0.36,0.418712
25.053,0.39999999999999997,0.418792
27.612,0.43999999999999995,0.418585
30.170,0.4799999999999999,0.418776
32.722,0.5199999999999999,0.418792
35.278,0.5599999999999999,0.418967
37.833,0.6,0.418681
40.389,0.64,0.418665
42.946,0.68,0.418935
45.502,0.7200000000000001,0.418681
48.090,0.7600000000000001,0.418871
50.646,0.8000000000000002,0.418776
53.202,0.8400000000000002,0.418824
55.776,0.8800000000000002,0.418856
58.330,0.9200000000000003,0.418871
60.889,0.9600000000000003,0.418856
63.443,1.0000000000000002,0.418696
65.998,1.0400000000000003,0.41884
68.555,1.0800000000000003,0.418665
71.111,1.1200000000000003,0.41876
73.667,1.1600000000000004,0.418824
76.224,1.2000000000000004,0.418776
78.780,1.2400000000000004,0.418808
81.336,1.2800000000000005,0.418728
83.893,1.3200000000000005,0.41903
86.448,1.3600000000000005,0.418871
89.004,1.4000000000000006,0.418919
91.560,1.4400000000000006,0.419094
94.116,1.4800000000000006,0.419269
96.674,1.5200000000000007,0.418967
99.229,1.5600000000000007,0.418983
101.785,1.6000000000000008,0.418967
104.343,1.6400000000000008,0.419078
106.900,1.6800000000000008,0.419078
109.454,1.7200000000000009,0.419046
112.010,1.760000000000001,0.418999
114.567,1.800000000000001,0.419015
117.122,1.840000000000001,0.418967
119.678,1.880000000000001,0.419046
122.235,1.920000000000001,0.419062
124.790,1.960000000000001,0.419142
127.346,2.000000000000001,0.418983
129.902,2.040000000000001,0.419237
132.458,2.080000000000001,0.419094
135.030,2.120000000000001,0.419078
137.587,2.160000000000001,0.419174
140.143,2.200000000000001,0.418951
142.700,2.240000000000001,0.418967
145.256,2.280000000000001,0.419189
147.812,2.320000000000001,0.419285
150.368,2.360000000000001,0.419015
152.924,2.4000000000000012,0.419189
155.496,2.4400000000000013,0.419348
158.052,2.4800000000000013,0.419189
160.608,2.5200000000000014,0.418999
163.164,2.5600000000000014,0.41911
165.720,2.6000000000000014,0.419094
168.276,2.6400000000000015,0.419078
170.832,2.6800000000000015,0.419142
173.389,2.7200000000000015,0.419015
175.947,2.7600000000000016,0.419078
178.502,2.8000000000000016,0.419189
181.057,2.8400000000000016,0.419189
183.613,2.8800000000000017,0.419142
186.169,2.9200000000000017,0.419285
188.725,2.9600000000000017,0.419333
191.312,3.0000000000000018,0.418967
193.886,3.040000000000002,0.419333
196.442,3.080000000000002,0.419317
198.997,3.120000000000002,0.419142
201.553,3.160000000000002,0.419126
204.111,3.200000000000002,0.419348
206.665,3.240000000000002,0.419301
209.222,3.280000000000002,0.419221
211.779,3.320000000000002,0.419317
214.334,3.360000000000002,0.419285
216.889,3.400000000000002,0.419189
219.446,3.440000000000002,0.41938
222.002,3.480000000000002,0.419046
224.561,3.5200000000000022,0.419396
227.131,3.5600000000000023,0.419396
229.687,3.6000000000000023,0.419285
232.244,3.6400000000000023,0.419189
234.799,3.6800000000000024,0.419428
237.355,3.7200000000000024,0.419428
239.911,3.7600000000000025,0.419412
242.468,3.8000000000000025,0.419539
245.024,3.8400000000000025,0.419492
247.580,3.8800000000000026,0.419301
250.137,3.9200000000000026,0.419396
252.692,3.9600000000000026,0.419539
255.248,4.000000000000003,0.419237
257.804,4.040000000000003,0.41946
260.360,4.080000000000003,0.41946
262.917,4.120000000000003,0.41946
265.473,4.160000000000003,0.419412
268.032,4.200000000000003,0.419603
270.587,4.240000000000003,0.419444
273.142,4.280000000000003,0.419762
275.699,4.320000000000003,0.419603
278.286,4.360000000000003,0.419746
280.841,4.400000000000003,0.419698
283.397,4.440000000000003,0.419555
285.953,4.480000000000003,0.419635
288.509,4.520000000000003,0.419651
291.065,4.560000000000003,0.419603
293.638,4.600000000000003,0.419587
296.194,4.640000000000003,0.419953
298.750,4.680000000000003,0.419826
301.306,4.720000000000003,0.41973
303.863,4.760000000000003,0.41981
306.434,4.800000000000003,0.419746
308.991,4.840000000000003,0.419746
311.546,4.8800000000000034,0.419794
314.102,4.9200000000000035,0.420016
316.659,4.9600000000000035,0.420001
319.215,5.0000000000000036,0.419857
321.772,5.040000000000004,0.419905
324.327,5.080000000000004,0.420239
326.883,5.120000000000004,0.420064
329.439,5.160000000000004,0.420112
331.995,5.200000000000004,0.42008
334.551,5.240000000000004,0.420175
337.107,5.280000000000004,0.42016
339.664,5.320000000000004,0.420064
342.219,5.360000000000004,0.420001
344.777,5.400000000000004,0.42016
347.360,5.440000000000004,0.42035
349.919,5.480000000000004,0.420191
352.475,5.520000000000004,0.420255
355.033,5.560000000000004,0.420335
357.612,5.600000000000004,0.420446
360.160,5.640000000000004,0.420366
362.717,5.680000000000004,0.420414
365.272,5.720000000000004,0.420637
367.829,5.760000000000004,0.420494
370.384,5.800000000000004,0.420971
372.941,5.840000000000004,0.420732
375.497,5.880000000000004,0.420971
378.053,5.920000000000004,0.420875
380.609,5.960000000000004,0.421114
383.166,6.000000000000004,0.421273
385.722,6.0400000000000045,0.4214
388.279,6.0800000000000045,0.421527
390.835,6.1200000000000045,0.421575
393.390,6.160000000000005,0.421734
395.946,6.200000000000005,0.421623
398.501,6.240000000000005,0.421766
401.057,6.280000000000005,0.421702
403.615,6.320000000000005,0.421814
406.170,6.360000000000005,0.421734
408.730,6.400000000000005,0.421814
411.288,6.440000000000005,0.421575
413.839,6.480000000000005,0.421845
416.395,6.520000000000005,0.421829
418.953,6.560000000000005,0.421973
421.522,6.600000000000005,0.422497
424.080,6.640000000000005,0.422481
426.652,6.680000000000005,0.422577
429.208,6.720000000000005,0.422688
431.763,6.760000000000005,0.422927
434.319,6.800000000000005,0.423165
436.875,6.840000000000005,0.423213
439.431,6.880000000000005,0.423531
441.988,6.920000000000005,0.423706
444.544,6.960000000000005,0.423786
447.101,7.000000000000005,0.423976
449.673,7.040000000000005,0.423945
452.228,7.080000000000005,0.424135
454.785,7.120000000000005,0.424056
457.340,7.1600000000000055,0.424151
459.896,7.2000000000000055,0.424342
462.485,7.2400000000000055,0.424565
465.041,7.280000000000006,0.424676
467.599,7.320000000000006,0.424867
470.153,7.360000000000006,0.424883
472.725,7.400000000000006,0.425042
475.281,7.440000000000006,0.424899
477.837,7.480000000000006,0.425312
480.394,7.520000000000006,0.425455
482.950,7.560000000000006,0.425583
485.506,7.600000000000006,0.425678
488.062,7.640000000000006,0.425662
490.618,7.680000000000006,0.425678
493.175,7.720000000000006,0.42563
495.731,7.760000000000006,0.425567
498.286,7.800000000000006,0.425424
500.842,7.840000000000006,0.42528
503.399,7.880000000000006,0.425105
505.955,7.920000000000006,0.424883
508.512,7.960000000000006,0.425137
511.067,8.000000000000005,0.425296
513.624,8.040000000000004,0.425599
516.181,8.080000000000004,0.426139
518.735,8.120000000000003,0.426632
521.292,8.160000000000002,0.426744
523.862,8.200000000000001,0.426887
526.420,8.24,0.427046
528.976,8.28,0.427459
531.533,8.319999999999999,0.427475
534.089,8.359999999999998,0.427793
536.645,8.399999999999997,0.42773
539.201,8.439999999999996,0.427618
541.757,8.479999999999995,0.42827
544.314,8.519999999999994,0.428509
546.869,8.559999999999993,0.42827
549.425,8.599999999999993,0.428207
551.986,8.639999999999992,0.428175
554.574,8.67999999999999,0.428302
557.125,8.71999999999999,0.428445
559.682,8.75999999999999,0.428191
562.238,8.799999999999988,0.428223
564.802,8.839999999999987,0.428159
567.350,8.879999999999987,0.428
569.907,8.919999999999986,0.427714
572.464,8.959999999999985,0.427411
575.034,8.999999999999984,0.42738
577.591,9.039999999999983,0.427093
580.146,9.079999999999982,0.426839
582.704,9.119999999999981,0.426664
585.260,9.15999999999998,0.42633
587.814,9.19999999999998,0.425885
590.370,9.239999999999979,0.425869
592.928,9.279999999999978,0.425424
595.484,9.319999999999977,0.424867
598.040,9.359999999999976,0.424756
600.596,9.399999999999975,0.424549
603.152,9.439999999999975,0.424406
605.708,9.479999999999974,0.424183
608.264,9.519999999999973,0.423913
610.822,9.559999999999972,0.423833
613.376,9.599999999999971,0.423706
615.933,9.63999999999997,0.423452
618.489,9.67999999999997,0.42334
621.045,9.719999999999969,0.422974
623.616,9.759999999999968,0.423134
626.173,9.799999999999967,0.422847
628.730,9.839999999999966,0.422736
631.286,9.879999999999965,0.422481
633.841,9.919999999999964,0.422163
636.397,9.959999999999964,0.422227
638.969,9.999999999999963,0.422132
641.525,10.039999999999962,0.422132
644.097,10.079999999999961,0.421686
646.669,10.11999999999996,0.421639
649.226,10.15999999999996,0.421543
651.781,10.199999999999958,0.42148
654.338,10.239999999999958,0.421575
656.895,10.279999999999957,0.421591
659.454,10.319999999999956,0.421241
662.007,10.359999999999955,0.421305
664.563,10.399999999999954,0.42113
667.119,10.439999999999953,0.421177
669.674,10.479999999999952,0.421098
672.230,10.519999999999952,0.420875
674.802,10.55999999999995,0.420716
677.359,10.59999999999995,0.420828
679.914,10.639999999999949,0.420494
682.472,10.679999999999948,0.420525
685.042,10.719999999999947,0.420128
687.599,10.759999999999946,0.420494
690.156,10.799999999999946,0.420223
692.711,10.839999999999945,0.420398
695.271,10.879999999999944,0.420589
697.824,10.919999999999943,0.420255
700.411,10.959999999999942,0.420319
702.969,10.999999999999941,0.420144
705.524,11.03999999999994,0.420175
708.080,11.07999999999994,0.420335
710.637,11.119999999999939,0.419985
713.192,11.159999999999938,0.420271
715.748,11.199999999999937,0.420271
718.305,11.239999999999936,0.420144
720.861,11.279999999999935,0.420001
723.440,11.319999999999935,0.420175
725.990,11.359999999999934,0.420207
728.546,11.399999999999933,0.420144
731.103,11.439999999999932,0.420366
733.659,11.479999999999931,0.420096
736.215,11.51999999999993,0.420223
738.774,11.55999999999993,0.420271
741.326,11.599999999999929,0.419953
743.883,11.639999999999928,0.419714
746.440,11.679999999999927,0.41981
748.994,11.719999999999926,0.41973
751.551,11.759999999999925,0.419873
754.106,11.799999999999924,0.419714
756.663,11.839999999999923,0.419857
759.219,11.879999999999923,0.419778
761.776,11.919999999999922,0.419667
764.331,11.959999999999921,0.42008
766.888,11.99999999999992,0.41973
769.443,12.03999999999992,0.419714
771.999,12.079999999999918,0.419587
774.555,12.119999999999918,0.419714
777.111,12.159999999999917,0.419937
779.669,12.199999999999916,0.419937
782.225,12.239999999999915,0.419857
784.780,12.279999999999914,0.419571
787.337,12.319999999999913,0.419619
789.893,12.359999999999912,0.419508
792.449,12.399999999999912,0.41973
795.005,12.43999999999991,0.419667
797.561,12.47999999999991,0.419174
800.117,12.519999999999909,0.419396
802.674,12.559999999999908,0.419555
805.230,12.599999999999907,0.419619
807.797,12.639999999999906,0.419635
810.341,12.679999999999906,0.419571
812.899,12.719999999999905,0.419508
815.455,12.759999999999904,0.419651
818.010,12.799999999999903,0.419555
820.584,12.839999999999902,0.419778
823.139,12.879999999999901,0.419762
825.696,12.9199999999999,0.419508
828.251,12.9599999999999,0.419428
830.808,12.999999999999899,0.419603
