Time [s],Position [mm],Power [W]
0.004,0,0.407691
2.046,0.04,0.407771
4.602,0.08,0.407819
7.239,0.12,0.408025
9.795,0.16,0.408009
12.367,0.2,0.407978
14.923,0.24000000000000002,0.408121
17.479,0.28,0.408089
20.034,0.32,0.408439
22.591,0.36,0.40828
25.146,0.39999999999999997,0.407978
27.703,0.43999999999999995,0.407962
30.260,0.4799999999999999,0.40785
32.817,0.5199999999999999,0.40785
35.372,0.5599999999999999,0.407978
37.932,0.6,0.407707
40.486,0.64,0.408184
43.059,0.68,0.407962
45.615,0.7200000000000001,0.407962
48.170,0.7600000000000001,0.408073
50.728,0.8000000000000002,0.407914
53.282,0.8400000000000002,0.407914
55.837,0.8800000000000002,0.408025
58.394,0.9200000000000003,0.40793
60.954,0.9600000000000003,0.407819
63.522,1.0000000000000002,0.408073
66.079,1.0400000000000003,0.408184
68.642,1.0800000000000003,0.408232
71.206,1.1200000000000003,0.407898
73.763,1.1600000000000004,0.4082
76.319,1.2000000000000004,0.408025
78.880,1.2400000000000004,0.408025
81.449,1.2800000000000005,0.408073
84.005,1.3200000000000005,0.407898
86.562,1.3600000000000005,0.408168
89.117,1.4000000000000006,0.408216
91.673,1.4400000000000006,0.407994
94.228,1.4800000000000006,0.407787
96.784,1.5200000000000007,0.407994
99.342,1.5600000000000007,0.407962
101.897,1.6000000000000008,0.407866
104.453,1.6400000000000008,0.407994
107.010,1.6800000000000008,0.407644
109.568,1.7200000000000009,0.408153
112.122,1.760000000000001,0.408057
114.679,1.800000000000001,0.408646
117.282,1.840000000000001,0.408407
119.838,1.880000000000001,0.408296
122.397,1.920000000000001,0.408296
124.954,1.960000000000001,0.408105
127.508,2.000000000000001,0.408057
130.064,2.040000000000001,0.408296
132.620,2.080000000000001,0.408439
135.175,2.120000000000001,0.407978
137.732,2.160000000000001,0.407994
140.287,2.200000000000001,0.408216
142.860,2.240000000000001,0.4082
145.416,2.280000000000001,0.408439
147.973,2.320000000000001,0.408518
150.529,2.360000000000001,0.408471
153.085,2.4000000000000012,0.408089
155.641,2.4400000000000013,0.408137
158.198,2.4800000000000013,0.408153
160.754,2.5200000000000014,0.408153
163.310,2.5600000000000014,0.40855
165.868,2.6000000000000014,0.408423
168.423,2.6400000000000015,0.40828
170.982,2.6800000000000015,0.408423
173.535,2.7200000000000015,0.408327
176.089,2.7600000000000016,0.408566
178.647,2.8000000000000016,0.408391
181.205,2.8400000000000016,0.408184
183.759,2.8800000000000017,0.408391
186.316,2.9200000000000017,0.408487
188.871,2.9600000000000017,0.408709
191.425,3.0000000000000018,0.408455
193.983,3.040000000000002,0.408518
196.570,3.080000000000002,0.408423
199.127,3.120000000000002,0.408614
201.683,3.160000000000002,0.408455
204.238,3.200000000000002,0.4082
206.798,3.240000000000002,0.408312
209.351,3.280000000000002,0.408614
211.908,3.320000000000002,0.408677
214.465,3.360000000000002,0.408709
217.020,3.400000000000002,0.408646
219.576,3.440000000000002,0.408598
222.132,3.480000000000002,0.40855
224.690,3.5200000000000022,0.408709
227.245,3.5600000000000023,0.409154
229.802,3.6000000000000023,0.408821
232.357,3.6400000000000023,0.409011
234.930,3.6800000000000024,0.409123
237.486,3.7200000000000024,0.408725
240.042,3.7600000000000025,0.409107
242.599,3.8000000000000025,0.408757
245.155,3.8400000000000025,0.408868
247.712,3.8800000000000026,0.408741
250.267,3.9200000000000026,0.408932
252.824,3.9600000000000026,0.408852
255.379,4.000000000000003,0.408948
257.937,4.040000000000003,0.409345
260.604,4.080000000000003,0.409043
263.160,4.120000000000003,0.4089
265.731,4.160000000000003,0.408836
268.289,4.200000000000003,0.409091
270.844,4.240000000000003,0.409377
273.402,4.280000000000003,0.409425
275.958,4.320000000000003,0.409441
278.513,4.360000000000003,0.409409
281.069,4.400000000000003,0.40925
283.635,4.440000000000003,0.409504
286.197,4.480000000000003,0.409536
288.960,4.520000000000003,0.4096
291.518,4.560000000000003,0.409775
294.075,4.600000000000003,0.409473
296.631,4.640000000000003,0.409584
299.185,4.680000000000003,0.409504
301.743,4.720000000000003,0.409647
304.297,4.760000000000003,0.409695
306.855,4.800000000000003,0.409711
309.411,4.840000000000003,0.410188
311.968,4.8800000000000034,0.409854
314.524,4.9200000000000035,0.410029
317.081,4.9600000000000035,0.409791
319.636,5.0000000000000036,0.409997
322.192,5.040000000000004,0.410045
324.747,5.080000000000004,0.410077
327.304,5.120000000000004,0.410077
329.862,5.160000000000004,0.410204
332.511,5.200000000000004,0.410284
335.070,5.240000000000004,0.410347
337.623,5.280000000000004,0.410188
340.181,5.320000000000004,0.410427
342.752,5.360000000000004,0.410331
345.309,5.400000000000004,0.410808
347.864,5.440000000000004,0.410665
350.422,5.480000000000004,0.410761
352.978,5.520000000000004,0.410665
355.533,5.560000000000004,0.410729
358.089,5.600000000000004,0.410936
360.645,5.640000000000004,0.410983
363.202,5.680000000000004,0.411047
365.758,5.720000000000004,0.411174
368.316,5.760000000000004,0.411079
370.870,5.800000000000004,0.411317
373.426,5.840000000000004,0.411142
375.983,5.880000000000004,0.411126
378.540,5.920000000000004,0.411031
381.174,5.960000000000004,0.411429
383.732,6.000000000000004,0.411476
386.302,6.0400000000000045,0.411588
388.860,6.0800000000000045,0.411667
391.415,6.1200000000000045,0.411572
393.970,6.160000000000005,0.411779
396.528,6.200000000000005,0.41162
399.084,6.240000000000005,0.412017
401.642,6.280000000000005,0.412065
404.197,6.320000000000005,0.412335
406.754,6.360000000000005,0.412621
409.308,6.400000000000005,0.412478
411.864,6.440000000000005,0.412558
414.421,6.480000000000005,0.412065
416.992,6.520000000000005,0.412065
419.551,6.560000000000005,0.412097
422.106,6.600000000000005,0.412192
424.760,6.640000000000005,0.412621
427.313,6.680000000000005,0.412415
429.886,6.720000000000005,0.412303
432.442,6.760000000000005,0.411922
434.999,6.800000000000005,0.412256
437.554,6.840000000000005,0.412001
440.112,6.880000000000005,0.41181
442.668,6.920000000000005,0.411572
445.223,6.960000000000005,0.411285
447.798,7.000000000000005,0.410681
450.383,7.040000000000005,0.41057
452.941,7.080000000000005,0.409568
455.497,7.120000000000005,0.408932
458.053,7.1600000000000055,0.407978
460.609,7.2000000000000055,0.406928
463.166,7.2400000000000055,0.406578
465.721,7.280000000000006,0.406467
468.278,7.320000000000006,0.405688
470.833,7.360000000000006,0.405147
473.390,7.400000000000006,0.404924
475.947,7.440000000000006,0.404558
478.502,7.480000000000006,0.404527
481.059,7.520000000000006,0.404861
483.615,7.560000000000006,0.404765
486.186,7.600000000000006,0.404606
488.760,7.640000000000006,0.404415
491.314,7.680000000000006,0.404606
493.870,7.720000000000006,0.404272
496.428,7.760000000000006,0.403382
498.983,7.800000000000006,0.401871
501.560,7.840000000000006,0.400614
504.112,7.880000000000006,0.399946
506.668,7.920000000000006,0.398929
509.272,7.960000000000006,0.39772
511.828,8.000000000000005,0.397545
514.387,8.040000000000004,0.397911
516.942,8.080000000000004,0.398706
519.498,8.120000000000003,0.399406
522.058,8.160000000000002,0.400137
524.626,8.200000000000001,0.401187
527.230,8.24,0.402237
529.787,8.28,0.403143
532.343,8.319999999999999,0.403811
534.899,8.359999999999998,0.40467
537.455,8.399999999999997,0.405147
540.011,8.439999999999996,0.406053
542.568,8.479999999999995,0.40661
545.128,8.519999999999994,0.406705
547.679,8.559999999999993,0.407819
550.237,8.599999999999993,0.407723
552.793,8.639999999999992,0.408327
555.348,8.67999999999999,0.408391
558.049,8.71999999999999,0.408471
560.606,8.75999999999999,0.408677
563.207,8.799999999999988,0.409027
565.765,8.839999999999987,0.409266
568.320,8.879999999999987,0.409504
570.876,8.919999999999986,0.409441
573.449,8.959999999999985,0.40995
576.005,8.999999999999984,0.409775
578.561,9.039999999999983,0.40995
581.119,9.079999999999982,0.410045
583.672,9.119999999999981,0.409966
586.228,9.15999999999998,0.410379
588.785,9.19999999999998,0.410459
591.340,9.239999999999979,0.410681
593.898,9.279999999999978,0.410427
596.453,9.319999999999977,0.410315
599.010,9.359999999999976,0.410268
601.568,9.399999999999975,0.410554
604.123,9.439999999999975,0.410506
606.678,9.479999999999974,0.410729
609.234,9.519999999999973,0.410586
611.791,9.559999999999972,0.410411
614.347,9.599999999999971,0.410522
616.903,9.63999999999997,0.410554
619.461,9.67999999999997,0.410586
622.016,9.719999999999969,0.41057
624.573,9.759999999999968,0.41049
627.129,9.799999999999967,0.410538
629.685,9.839999999999966,0.410506
632.305,9.879999999999965,0.410649
634.861,9.919999999999964,0.410554
637.417,9.959999999999964,0.410586
639.974,9.999999999999963,0.410777
642.529,10.039999999999962,0.41092
645.085,10.079999999999961,0.410554
647.723,10.11999999999996,0.410506
650.281,10.15999999999996,0.410474
652.850,10.199999999999958,0.410204
655.408,10.239999999999958,0.41049
657.977,10.279999999999957,0.410602
660.535,10.319999999999956,0.410618
663.089,10.359999999999955,0.410093
665.648,10.399999999999954,0.4103
668.205,10.439999999999953,0.410443
670.855,10.479999999999952,0.410172
673.412,10.519999999999952,0.410268
675.968,10.55999999999995,0.410029
678.540,10.59999999999995,0.410125
681.112,10.639999999999949,0.410156
683.668,10.679999999999948,0.410331
686.224,10.719999999999947,0.410315
688.782,10.759999999999946,0.410045
691.337,10.799999999999946,0.410125
693.894,10.839999999999945,0.410061
696.449,10.879999999999944,0.409966
699.022,10.919999999999943,0.41022
701.577,10.959999999999942,0.41014
704.133,10.999999999999941,0.410188
706.691,11.03999999999994,0.410188
709.248,11.07999999999994,0.410029
711.802,11.119999999999939,0.410045
714.360,11.159999999999938,0.409934
716.916,11.199999999999937,0.410013
719.551,11.239999999999936,0.410156
722.108,11.279999999999935,0.410013
724.664,11.319999999999935,0.409838
727.284,11.359999999999934,0.409934
729.855,11.399999999999933,0.409918
732.434,11.439999999999932,0.410061
734.984,11.479999999999931,0.409918
737.541,11.51999999999993,0.409838
740.113,11.55999999999993,0.409759
742.671,11.599999999999929,0.409743
745.225,11.639999999999928,0.409934
747.781,11.679999999999927,0.409473
750.337,11.719999999999926,0.409695
752.895,11.759999999999925,0.409727
755.450,11.799999999999924,0.409663
758.008,11.839999999999923,0.409552
760.562,11.879999999999923,0.409314
763.118,11.919999999999922,0.409361
765.674,11.959999999999921,0.409298
768.231,11.99999999999992,0.409266
770.787,12.03999999999992,0.409441
773.344,12.079999999999918,0.409186
775.898,12.119999999999918,0.409504
778.458,12.159999999999917,0.409377
781.012,12.199999999999916,0.409695
783.569,12.239999999999915,0.409393
786.236,12.279999999999914,0.409536
788.791,12.319999999999913,0.409266
791.348,12.359999999999912,0.409186
793.906,12.399999999999912,0.409218
796.555,12.43999999999991,0.409154
799.113,12.47999999999991,0.409409
801.669,12.519999999999909,0.408932
804.223,12.559999999999908,0.409282
806.781,12.599999999999907,0.409361
809.354,12.639999999999906,0.409393
811.908,12.679999999999906,0.408995
814.466,12.719999999999905,0.408932
817.101,12.759999999999904,0.408916
819.658,12.799999999999903,0.409186
822.214,12.839999999999902,0.409043
824.770,12.879999999999901,0.4089
827.326,12.9199999999999,0.409091
829.883,12.9599999999999,0.40863
832.550,12.999999999999899,0.408757
